'sample #','EEG Fp1','EEG Fp2','EEG F3','EEG F4','EEG F7','EEG F8','EEG T3','EEG T4','EEG C3','EEG C4','EEG T5','EEG T6','EEG P3','EEG P4','EEG O1','EEG O2','EEG Fz','EEG Cz','EEG Pz','EEG A2-A1','ECG ECG','EDF Annotations'
0,-6735,3084,-5562,-7061,-4125,-3169,2220,-3030,-6036,-5329,240,-1672,-983,2382,-1832,2269,-8128,1753,1719,-5749,-16731,12331
1,-7104,2703,-5830,-7257,-4260,-3320,2656,-2355,-5741,-5049,753,-507,157,3588,-952,3112,-8324,4105,3285,-6328,-16992,12331
2,-7554,2298,-6228,-7554,-4365,-3433,3273,-1488,-5428,-4752,1439,985,1581,5105,205,4137,-8617,7013,5207,-7045,-17382,12331
3,-8024,1951,-6735,-7933,-4428,-3446,4027,-522,-5153,-4495,2254,2643,3123,6765,1557,5243,-8993,10006,7239,-7766,-17890,12331
4,-8442,1738,-7298,-8355,-4459,-3304,4844,423,-4963,-4322,3133,4264,4570,8352,2991,6326,-9411,12492,9086,-8316,-18490,12331
5,-8741,1695,-7840,-8760,-4487,-2985,5632,1225,-4875,-4260,4008,5639,5733,9666,4385,7304,-9816,13925,10486,-8530,-19139,12331
6,-8879,1817,-8278,-9092,-4546,-2510,6306,1790,-4878,-4313,4820,6620,6474,10544,5626,8126,-10151,13986,11281,-8320,-19791,12331
7,-8852,2053,-8549,-9314,-4647,-1958,6805,2059,-4941,-4479,5518,7133,6731,10892,6610,8755,-10378,12689,11434,-7720,-20403,12331
8,-8691,2328,-8623,-9428,-4768,-1454,7092,2000,-5042,-4780,6055,7173,6507,10670,7237,9142,-10490,10390,11018,-6899,-20939,12331
9,-8455,2570,-8520,-9485,-4850,-1151,7149,1597,-5187,-5273,6383,6776,5835,9863,7401,9200,-10529,7653,10153,-6130,-21376,5140
10,-8219,2727,-8304,-9571,-4820,-1197,6958,822,-5421,-6051,6445,5982,4751,8465,7003,8812,-10571,5078,8950,-5717,-21703,5140
11,-8051,2780,-8060,-9787,-4611,-1697,6495,-351,-5813,-7219,6189,4812,3279,6476,5965,7858,-10715,3103,7463,-5905,-21921,5140
12,-7998,2735,-7869,-10209,-4186,-2683,5730,-1933,-6428,-8837,5577,3271,1435,3916,4269,6266,-11041,1897,5690,-6803,-22037,5140
13,-8069,2614,-7775,-10856,-3548,-4089,4644,-3892,-7282,-10875,4612,1374,-747,861,1989,4061,-11585,1347,3603,-8346,-22068,5140
14,-8231,2445,-7768,-11669,-2735,-5750,3256,-6122,-8318,-13184,3345,-827,-3189,-2545,-718,1382,-12307,1165,1198,-10311,-22033,5140
15,-8411,2261,-7788,-12515,-1804,-7427,1642,-8442,-9400,-15500,1873,-3218,-5752,-6080,-3610,-1532,-13093,1034,-1459,-12375,-21956,5140
16,-8514,2100,-7741,-13217,-823,-8852,-57,-10614,-10336,-17499,328,-5623,-8251,-9472,-6411,-4393,-13772,760,-4220,-14211,-21863,5140
17,-8439,2012,-7540,-13597,140,-9782,-1654,-12394,-10930,-18874,-1158,-7837,-10482,-12450,-8870,-6935,-14168,340,-6860,-15576,-21776,5140
18,-8109,2069,-7131,-13531,1013,-10055,-2953,-13599,-11035,-19419,-2475,-9675,-12269,-14808,-10813,-8976,-14140,-43,-9144,-16368,-21710,0
19,-7485,2351,-6518,-12977,1728,-9627,-3793,-14147,-10590,-19085,-3556,-11024,-13498,-16437,-12166,-10454,-13628,-118,-10872,-16644,-21675,0
20,-6571,2939,-5757,-11986,2229,-8570,-4080,-14080,-9633,-17989,-4377,-11867,-14141,-17347,-12960,-11426,-12663,361,-11932,-16576,-21670,0
21,-5408,3890,-4933,-10681,2491,-7048,-3799,-13545,-8278,-16373,-4945,-12283,-14239,-17645,-13286,-12025,-11355,1512,-12316,-16387,-21688,0
22,-4060,5214,-4125,-9216,2540,-5269,-3012,-12734,-6674,-14524,-5275,-12409,-13875,-17478,-13253,-12403,-9855,3286,-12085,-16270,-21716,0
23,-2595,6861,-3377,-7730,2467,-3431,-1819,-11831,-4956,-12698,-5373,-12384,-13134,-16988,-12941,-12678,-8312,5485,-11343,-16330,-21747,0
24,-1072,8723,-2682,-6323,2416,-1679,-333,-10956,-3210,-11060,-5225,-12303,-12071,-16263,-12374,-12899,-6837,7836,-10186,-16565,-21774,0
25,460,10644,-1990,-5041,2548,-92,1348,-10147,-1470,-9658,-4812,-12189,-10708,-15332,-11537,-13046,-5489,10078,-8678,-16883,-21801,0
26,1957,12451,-1233,-3891,3003,1304,3152,-9376,264,-8449,-4126,-12001,-9043,-14180,-10399,-13053,-4284,12017,-6854,-17148,-21832,0
27,3379,13987,-359,-2862,3846,2512,5025,-8582,2001,-7343,-3187,-11663,-7088,-12783,-8957,-12840,-3215,13577,-4746,-17236,-21872,0
28,4678,15140,641,-1951,5055,3531,6915,-7707,3726,-6249,-2059,-11100,-4890,-11139,-7262,-12342,-2279,14786,-2407,-17071,-21920,0
29,5804,15861,1725,-1167,6512,4343,8760,-6726,5384,-5113,-847,-10271,-2549,-9294,-5427,-11524,-1484,15738,64,-16648,-21970,0
30,6711,16170,2807,-537,8045,4909,10485,-5655,6891,-3928,320,-9175,-211,-7332,-3608,-10388,-855,16558,2528,-16014,-22009,0
31,7369,16144,3780,-88,9467,5187,12003,-4535,8145,-2729,1311,-7854,1955,-5366,-1971,-8965,-413,17355,4820,-15246,-22026,0
32,7763,15892,4551,166,10621,5159,13236,-3425,9058,-1570,2020,-6373,3789,-3511,-657,-7316,-171,18192,6789,-14421,-22012,0
33,7909,15528,5049,233,11412,4842,14134,-2381,9573,-514,2384,-4818,5174,-1870,244,-5532,-115,19074,8316,-13604,-21964,0
34,7838,15155,5247,139,11807,4293,14692,-1455,9676,380,2390,-3280,6050,-520,699,-3733,-211,19952,9339,-12840,-21884,0
35,7597,14837,5163,-74,11830,3597,14962,-691,9401,1061,2084,-1858,6426,490,734,-2068,-416,20744,9857,-12168,-21779,0
36,7237,14611,4840,-365,11537,2843,15044,-125,8821,1490,1554,-651,6370,1140,420,-691,-682,21357,9920,-11631,-21655,0
37,6802,14471,4345,-698,10993,2104,15069,217,8037,1639,921,256,6001,1453,-135,264,-975,21716,9624,-11275,-21518,0
38,6327,14391,3745,-1046,10262,1421,15176,331,7158,1506,317,807,5460,1485,-798,718,-1274,21780,9096,-11144,-21381,0
39,5831,14327,3102,-1392,9400,808,15475,241,6291,1119,-135,1000,4897,1332,-1432,672,-1569,21552,8474,-11259,-21257,0
40,5320,14219,2466,-1722,8464,259,16022,0,5517,538,-349,882,4441,1107,-1906,211,-1856,21073,7896,-11607,-21168,0
41,4788,14009,1872,-2026,7514,-239,16811,-323,4882,-156,-283,552,4184,926,-2119,-516,-2133,20400,7478,-12130,-21132,0
42,4225,13649,1338,-2298,6622,-696,17769,-657,4390,-885,48,133,4170,873,-2019,-1332,-2397,19594,7291,-12739,-21156,0
43,3622,13108,874,-2542,5864,-1119,18776,-957,4005,-1590,578,-264,4385,981,-1608,-2070,-2652,18695,7356,-13325,-21232,0
44,2980,12386,480,-2771,5308,-1516,19689,-1218,3659,-2256,1208,-562,4771,1224,-947,-2612,-2907,17716,7633,-13791,-21332,0
45,2316,11522,152,-3010,5001,-1901,20369,-1470,3280,-2910,1833,-738,5232,1525,-132,-2901,-3181,16642,8040,-14066,-21414,0
46,1656,10583,-113,-3282,4954,-2295,20705,-1769,2805,-3604,2363,-814,5665,1784,724,-2938,-3492,15437,8465,-14121,-21436,0
47,1040,9662,-316,-3605,5134,-2718,20630,-2160,2206,-4388,2742,-831,5978,1910,1523,-2765,-3854,14070,8800,-13956,-21368,0
48,511,8852,-453,-3975,5467,-3179,20131,-2653,1499,-5279,2961,-825,6110,1850,2197,-2442,-4261,12531,8959,-13602,-21207,0
49,108,8231,-517,-4364,5854,-3671,19248,-3210,745,-6236,3046,-804,6048,1605,2717,-2030,-4687,10856,8900,-13100,-20976,0
50,-143,7840,-495,-4727,6188,-4164,18074,-3747,31,-7165,3042,-742,5820,1224,3085,-1577,-5087,9134,8621,-12498,-20720,0
51,-231,7683,-384,-5008,6382,-4618,16739,-4159,-543,-7939,2996,-596,5488,779,3322,-1124,-5408,7511,8156,-11855,-20490,0
52,-166,7727,-182,-5164,6379,-4991,15389,-4363,-905,-8443,2934,-332,5117,339,3446,-707,-5605,6156,7551,-11236,-20331,0
53,25,7910,91,-5176,6168,-5260,14163,-4329,-1031,-8609,2850,43,4755,-62,3454,-369,-5658,5226,6845,-10718,-20266,0
54,294,8164,400,-5060,5774,-5420,13161,-4102,-959,-8451,2709,465,4409,-448,3317,-162,-5577,4819,6054,-10381,-20301,0
55,582,8421,683,-4866,5242,-5487,12421,-3799,-789,-8065,2458,812,4037,-890,2987,-148,-5410,4925,5161,-10292,-20419,0
56,818,8626,868,-4665,4624,-5482,11907,-3583,-671,-7617,2045,930,3553,-1496,2407,-391,-5226,5416,4124,-10484,-20594,0
57,930,8734,879,-4531,3955,-5421,11513,-3616,-766,-7295,1437,673,2852,-2372,1535,-936,-5100,6057,2892,-10944,-20794,0
58,854,8712,658,-4519,3248,-5305,11094,-4020,-1215,-7265,632,-55,1844,-3589,366,-1805,-5095,6560,1431,-11604,-20987,0
59,547,8540,175,-4655,2487,-5122,10503,-4840,-2093,-7632,-329,-1267,485,-5152,-1055,-2975,-5244,6652,-254,-12359,-21146,0
60,-2,8210,-556,-4924,1644,-4850,9631,-6029,-3392,-8407,-1371,-2885,-1200,-6997,-2631,-4380,-5538,6157,-2110,-13089,-21250,0
61,-766,7736,-1480,-5279,689,-4480,8444,-7463,-5014,-9514,-2397,-4750,-3111,-8988,-4232,-5916,-5937,5040,-4028,-13692,-21288,0
62,-1681,7154,-2509,-5652,-396,-4023,6984,-8964,-6785,-10803,-3304,-6660,-5091,-10947,-5712,-7451,-6372,3425,-5870,-14108,-21258,0
63,-2663,6526,-3544,-5977,-1599,-3523,5358,-10343,-8496,-12089,-4006,-8408,-6957,-12686,-6945,-8853,-6769,1561,-7484,-14335,-21174,0
64,-3614,5927,-4491,-6204,-2878,-3055,3703,-11436,-9944,-13192,-4448,-9825,-8545,-14038,-7843,-10008,-7069,-247,-8741,-14423,-21061,0
65,-4454,5425,-5282,-6313,-4158,-2714,2146,-12132,-10976,-13973,-4621,-10804,-9727,-14890,-8371,-10834,-7240,-1712,-9557,-14449,-20953,0
66,-5136,5062,-5879,-6321,-5338,-2596,779,-12393,-11518,-14358,-4556,-11309,-10446,-15192,-8546,-11292,-7291,-2644,-9907,-14490,-20883,0
67,-5648,4832,-6275,-6275,-6307,-2776,-351,-12252,-11583,-14349,-4322,-11370,-10713,-14973,-8423,-11381,-7260,-2984,-9822,-14594,-20876,0
68,-6014,4680,-6482,-6235,-6955,-3288,-1234,-11804,-11261,-14015,-4003,-11071,-10599,-14320,-8081,-11132,-7210,-2808,-9384,-14764,-20941,0
69,-6277,4516,-6523,-6264,-7194,-4107,-1873,-11184,-10685,-13474,-3685,-10531,-10209,-13368,-7606,-10599,-7207,-2292,-8697,-14960,-21068,0
70,-6481,4244,-6415,-6403,-6979,-5151,-2264,-10535,-9996,-12857,-3432,-9884,-9658,-12264,-7082,-9853,-7301,-1644,-7872,-15116,-21234,0
71,-6653,3798,-6170,-6664,-6324,-6283,-2391,-9984,-9305,-12285,-3274,-9259,-9046,-11144,-6579,-8971,-7510,-1045,-7004,-15159,-21409,0
72,-6791,3172,-5792,-7020,-5311,-7338,-2233,-9612,-8675,-11839,-3210,-8760,-8444,-10106,-6159,-8033,-7817,-591,-6160,-15041,-21562,0
73,-6865,2429,-5285,-7407,-4074,-8147,-1783,-9442,-8112,-11547,-3206,-8450,-7883,-9198,-5865,-7117,-8165,-272,-5373,-14747,-21673,0
74,-6823,1696,-4656,-7736,-2777,-8567,-1065,-9435,-7576,-11381,-3217,-8341,-7363,-8421,-5722,-6292,-8469,16,-4650,-14305,-21735,0
75,-6606,1136,-3917,-7908,-1574,-8504,-144,-9509,-7009,-11273,-3197,-8397,-6861,-7744,-5738,-5616,-8632,429,-3985,-13770,-21756,0
76,-6161,908,-3090,-7827,-567,-7930,887,-9557,-6353,-11131,-3120,-8553,-6353,-7127,-5904,-5130,-8561,1111,-3372,-13207,-21751,0
77,-5451,1139,-2201,-7424,218,-6874,1929,-9483,-5574,-10866,-2983,-8729,-5829,-6550,-6199,-4861,-8183,2144,-2819,-12671,-21739,0
78,-4464,1892,-1277,-6663,838,-5421,2903,-9217,-4674,-10412,-2808,-8860,-5303,-6015,-6602,-4822,-7460,3509,-2356,-12188,-21740,0
79,-3216,3164,-342,-5554,1404,-3686,3761,-8732,-3689,-9735,-2633,-8907,-4813,-5557,-7095,-5018,-6396,5089,-2027,-11758,-21765,0
80,-1754,4882,571,-4153,2028,-1795,4492,-8044,-2681,-8842,-2497,-8862,-4415,-5223,-7667,-5446,-5041,6699,-1880,-11357,-21822,0
81,-157,6919,1433,-2556,2777,122,5104,-7196,-1732,-7777,-2432,-8737,-4170,-5059,-8313,-6094,-3487,8141,-1952,-10956,-21907,0
82,1461,9106,2193,-893,3629,1948,5603,-6255,-928,-6616,-2458,-8554,-4131,-5093,-9032,-6940,-1857,9253,-2257,-10539,-22011,0
83,2966,11254,2791,688,4472,3579,5983,-5291,-356,-5461,-2582,-8325,-4334,-5328,-9817,-7948,-300,9948,-2786,-10111,-22118,0
84,4208,13173,3155,2039,5133,4925,6222,-4376,-93,-4426,-2809,-8050,-4797,-5742,-10656,-9070,1035,10225,-3508,-9703,-22210,0
85,5054,14696,3220,3032,5437,5917,6302,-3575,-186,-3624,-3143,-7721,-5512,-6296,-11527,-10242,2015,10154,-4386,-9356,-22265,0
86,5418,15704,2956,3581,5267,6510,6230,-2944,-647,-3150,-3596,-7329,-6446,-6944,-12401,-11393,2546,9845,-5378,-9109,-22266,0
87,5281,16145,2374,3651,4613,6686,6051,-2521,-1433,-3052,-4177,-6874,-7542,-7634,-13242,-12450,2593,9415,-6448,-8987,-22202,0
88,4701,16032,1547,3275,3580,6464,5853,-2331,-2443,-3331,-4887,-6380,-8717,-8317,-14011,-13347,2183,8958,-7556,-8987,-22072,0
89,3804,15446,597,2535,2362,5891,5740,-2371,-3529,-3931,-5705,-5887,-9864,-8945,-14661,-14030,1401,8531,-8658,-9087,-21884,0
90,2757,14512,-323,1554,1191,5038,5807,-2621,-4523,-4753,-6583,-5451,-10874,-9475,-15147,-14467,375,8154,-9693,-9250,-21658,0
91,1728,13371,-1069,468,276,3988,6106,-3048,-5276,-5687,-7448,-5128,-11645,-9874,-15420,-14648,-752,7813,-10585,-9441,-21415,0
92,853,12161,-1534,-598,-247,2826,6636,-3617,-5694,-6638,-8210,-4965,-12108,-10130,-15442,-14584,-1851,7469,-11258,-9631,-21180,0
93,211,10997,-1678,-1548,-334,1633,7339,-4289,-5765,-7548,-8785,-4989,-12240,-10253,-15190,-14310,-2824,7065,-11646,-9805,-20970,0
94,-173,9972,-1532,-2326,-32,485,8129,-5040,-5565,-8403,-9105,-5208,-12069,-10278,-14665,-13879,-3614,6541,-11723,-9961,-20801,0
95,-324,9154,-1181,-2911,547,-547,8911,-5852,-5230,-9219,-9141,-5617,-11667,-10262,-13907,-13359,-4204,5839,-11513,-10103,-20682,0
96,-291,8588,-740,-3310,1260,-1400,9607,-6713,-4920,-10025,-8904,-6208,-11131,-10269,-12991,-12829,-4605,4928,-11100,-10246,-20622,0
97,-132,8299,-327,-3546,1965,-2018,10162,-7610,-4777,-10835,-8450,-6973,-10564,-10363,-12024,-12369,-4845,3819,-10615,-10409,-20625,0
98,100,8285,-21,-3645,2545,-2364,10546,-8522,-4884,-11630,-7864,-7904,-10053,-10585,-11126,-12055,-4951,2573,-10206,-10614,-20689,0
99,363,8507,133,-3631,2925,-2433,10742,-9417,-5256,-12361,-7247,-8983,-9655,-10951,-10414,-11945,-4950,1299,-10009,-10885,-20803,0
100,622,8898,136,-3523,3075,-2252,10750,-10250,-5841,-12955,-6700,-10172,-9392,-11444,-9977,-12076,-4859,129,-10110,-11237,-20948,0
101,848,9367,22,-3339,3013,-1881,10583,-10966,-6546,-13347,-6303,-11399,-9262,-12019,-9860,-12452,-4692,-808,-10527,-11667,-21093,0
102,1017,9822,-160,-3091,2796,-1403,10282,-11510,-7265,-13495,-6102,-12562,-9238,-12608,-10064,-13052,-4460,-1424,-11207,-12145,-21207,0
103,1118,10184,-355,-2795,2512,-901,9919,-11832,-7900,-13396,-6103,-13543,-9291,-13136,-10544,-13827,-4176,-1694,-12038,-12618,-21261,0
104,1153,10412,-507,-2460,2258,-442,9596,-11898,-8371,-13085,-6269,-14228,-9382,-13527,-11222,-14716,-3851,-1656,-12881,-13012,-21238,0
105,1149,10508,-575,-2095,2124,-53,9427,-11689,-8617,-12618,-6525,-14529,-9474,-13719,-12001,-15642,-3491,-1391,-13583,-13246,-21136,0
106,1145,10506,-521,-1698,2167,280,9511,-11207,-8591,-12054,-6771,-14406,-9525,-13664,-12780,-16535,-3099,-989,-14013,-13253,-20963,0
107,1185,10462,-319,-1264,2400,610,9901,-10473,-8261,-11438,-6901,-13867,-9490,-13338,-13459,-17307,-2670,-523,-14088,-12990,-20735,0
108,1302,10429,27,-790,2785,1004,10575,-9524,-7619,-10799,-6819,-12968,-9327,-12739,-13957,-17884,-2202,-30,-13767,-12453,-20469,0
109,1502,10436,497,-286,3243,1517,11435,-8422,-6700,-10157,-6468,-11799,-9010,-11899,-14217,-18199,-1703,471,-13078,-11675,-20184,0
110,1754,10477,1034,216,3676,2165,12319,-7251,-5596,-9539,-5847,-10480,-8544,-10884,-14226,-18210,-1204,975,-12110,-10727,-19901,0
111,1995,10512,1560,661,3989,2908,13041,-6121,-4449,-8990,-5014,-9149,-7971,-9795,-14013,-17910,-758,1456,-11010,-9710,-19646,0
112,2144,10475,1990,969,4116,3651,13439,-5156,-3432,-8570,-4079,-7951,-7369,-8757,-13653,-17329,-441,1871,-9958,-8744,-19452,0
113,2130,10300,2252,1061,4031,4266,13410,-4475,-2705,-8337,-3180,-7021,-6830,-7891,-13247,-16539,-331,2164,-9126,-7948,-19356,0
114,1907,9940,2306,880,3748,4622,12943,-4159,-2370,-8322,-2444,-6460,-6430,-7291,-12895,-15626,-486,2302,-8636,-7424,-19386,0
115,1481,9384,2159,412,3312,4629,12110,-4225,-2434,-8504,-1953,-6313,-6201,-6987,-12662,-14675,-922,2298,-8520,-7240,-19559,0
116,900,8671,1859,-301,2781,4259,11047,-4618,-2805,-8801,-1717,-6549,-6111,-6938,-12560,-13742,-1598,2223,-8704,-7414,-19864,0
117,255,7882,1481,-1161,2209,3558,9916,-5210,-3316,-9090,-1677,-7063,-6075,-7040,-12537,-12850,-2423,2203,-9020,-7914,-20269,0
118,-357,7124,1103,-2038,1640,2638,8869,-5839,-3774,-9239,-1721,-7703,-5978,-7151,-12492,-11989,-3271,2377,-9248,-8668,-20723,0
119,-848,6506,787,-2799,1112,1640,8019,-6349,-4013,-9148,-1724,-8306,-5712,-7139,-12315,-11141,-4013,2861,-9183,-9579,-21167,0
120,-1154,6113,570,-3337,663,712,7432,-6628,-3936,-8780,-1585,-8740,-5214,-6920,-11918,-10302,-4548,3707,-8688,-10546,-21550,0
121,-1251,5992,459,-3593,346,-26,7130,-6636,-3530,-8171,-1258,-8942,-4484,-6486,-11267,-9502,-4816,4890,-7737,-11487,-21838,0
122,-1147,6134,442,-3561,229,-496,7098,-6404,-2850,-7408,-762,-8919,-3582,-5893,-10392,-8808,-4809,6312,-6420,-12342,-22016,0
123,-877,6486,501,-3286,381,-670,7292,-6013,-1990,-6605,-172,-8738,-2609,-5256,-9380,-8310,-4566,7828,-4918,-13079,-22089,0
124,-494,6957,613,-2842,854,-560,7646,-5565,-1058,-5866,403,-8495,-1683,-4707,-8349,-8099,-4156,9278,-3455,-13686,-22079,0
125,-62,7441,761,-2320,1651,-217,8071,-5161,-151,-5270,850,-8288,-914,-4366,-7424,-8239,-3661,10522,-2249,-14168,-22010,0
126,357,7837,927,-1809,2710,286,8458,-4877,644,-4864,1075,-8191,-399,-4321,-6712,-8756,-3167,11449,-1468,-14540,-21911,0
127,699,8067,1087,-1388,3899,862,8695,-4766,1246,-4672,1016,-8253,-203,-4617,-6295,-9630,-2752,11995,-1212,-14822,-21808,0
128,916,8094,1213,-1117,5038,1420,8686,-4859,1575,-4711,654,-8492,-377,-5262,-6221,-10809,-2476,12130,-1503,-15039,-21719,0
129,977,7927,1276,-1028,5942,1882,8374,-5163,1562,-4991,6,-8908,-948,-6226,-6506,-12214,-2377,11866,-2298,-15214,-21657,0
130,885,7618,1258,-1118,6465,2200,7763,-5657,1163,-5508,-874,-9478,-1913,-7446,-7133,-13759,-2458,11255,-3502,-15360,-21630,0
131,674,7253,1157,-1345,6538,2372,6922,-6290,384,-6227,-1907,-10155,-3224,-8826,-8051,-15348,-2681,10394,-4984,-15475,-21638,0
132,408,6931,994,-1627,6181,2446,5961,-6972,-704,-7073,-2994,-10866,-4787,-10240,-9176,-16887,-2969,9421,-6593,-15538,-21671,0
133,162,6746,811,-1861,5496,2506,5008,-7585,-1974,-7929,-4036,-11515,-6461,-11544,-10396,-18273,-3224,8507,-8174,-15515,-21717,0
134,10,6756,656,-1937,4629,2652,4166,-8004,-3265,-8656,-4942,-11997,-8084,-12598,-11590,-19412,-3335,7825,-9586,-15363,-21760,0
135,-7,6974,575,-1780,3734,2959,3485,-8126,-4422,-9124,-5647,-12219,-9502,-13289,-12644,-20224,-3224,7512,-10718,-15053,-21782,0
136,111,7356,588,-1367,2933,3451,2960,-7901,-5333,-9247,-6118,-12125,-10595,-13555,-13479,-20654,-2865,7626,-11502,-14572,-21771,0
137,320,7814,690,-744,2301,4079,2534,-7342,-5955,-9004,-6361,-11708,-11306,-13395,-14053,-20683,-2296,8121,-11921,-13937,-21720,0
138,543,8236,845,-18,1864,4737,2136,-6525,-6306,-8445,-6412,-11010,-11633,-12866,-14372,-20322,-1615,8851,-11997,-13182,-21633,0
139,694,8520,1002,672,1610,5286,1710,-5568,-6445,-7671,-6320,-10100,-11619,-12058,-14466,-19608,-955,9605,-11777,-12351,-21517,0
140,706,8600,1104,1190,1505,5607,1245,-4592,-6435,-6801,-6136,-9053,-11324,-11069,-14369,-18581,-446,10160,-11308,-11485,-21384,0
141,547,8462,1109,1438,1507,5629,776,-3698,-6322,-5946,-5892,-7925,-10794,-9979,-14105,-17277,-188,10353,-10625,-10610,-21250,0
142,231,8143,997,1374,1573,5359,377,-2941,-6120,-5186,-5598,-6743,-10061,-8840,-13672,-15719,-225,10120,-9745,-9739,-21124,0
143,-200,7711,772,1021,1661,4866,124,-2337,-5825,-4565,-5250,-5508,-9144,-7677,-13056,-13925,-542,9511,-8678,-8876,-21014,0
144,-688,7236,458,441,1729,4256,73,-1871,-5432,-4105,-4839,-4216,-8067,-6509,-12247,-11926,-1084,8667,-7447,-8029,-20924,0
145,-1184,6768,87,-280,1743,3635,244,-1519,-4961,-3814,-4374,-2873,-6874,-5358,-11260,-9782,-1769,7762,-6103,-7213,-20854,0
146,-1658,6323,-301,-1058,1674,3078,616,-1266,-4459,-3707,-3885,-1510,-5646,-4268,-10149,-7595,-2520,6947,-4740,-6453,-20805,0
147,-2099,5894,-678,-1821,1508,2623,1151,-1106,-3991,-3790,-3424,-184,-4482,-3296,-9000,-5499,-3264,6306,-3466,-5774,-20778,0
148,-2504,5470,-1019,-2514,1241,2272,1811,-1041,-3611,-4065,-3051,1040,-3483,-2498,-7916,-3643,-3942,5845,-2394,-5201,-20773,0
149,-2866,5056,-1303,-3088,879,2014,2574,-1062,-3346,-4505,-2812,2099,-2717,-1911,-6987,-2160,-4507,5511,-1599,-4746,-20786,0
150,-3170,4681,-1517,-3505,429,1835,3429,-1149,-3169,-5051,-2717,2958,-2199,-1535,-6267,-1135,-4920,5231,-1094,-4412,-20810,0
151,-3398,4390,-1658,-3736,-106,1727,4361,-1265,-3017,-5615,-2735,3596,-1888,-1334,-5756,-591,-5151,4951,-819,-4202,-20830,0
152,-3535,4220,-1728,-3773,-722,1682,5336,-1369,-2804,-6094,-2797,4015,-1700,-1244,-5416,-482,-5191,4662,-665,-4121,-20823,0
153,-3584,4182,-1741,-3629,-1410,1681,6293,-1432,-2456,-6400,-2818,4223,-1534,-1196,-5177,-714,-5053,4398,-491,-4187,-20768,0
154,-3567,4254,-1718,-3350,-2146,1699,7161,-1448,-1939,-6480,-2721,4224,-1305,-1138,-4971,-1165,-4780,4211,-178,-4416,-20648,0
155,-3517,4385,-1684,-2997,-2882,1712,7883,-1440,-1269,-6333,-2452,4019,-965,-1051,-4748,-1718,-4434,4147,344,-4817,-20458,0
156,-3466,4523,-1665,-2641,-3551,1710,8452,-1447,-511,-6009,-2000,3611,-508,-945,-4489,-2273,-4083,4210,1076,-5372,-20210,0
157,-3427,4635,-1678,-2344,-4079,1719,8903,-1512,242,-5592,-1390,3020,31,-852,-4199,-2766,-3790,4362,1957,-6025,-19932,0
158,-3395,4723,-1733,-2144,-4407,1800,9306,-1658,893,-5175,-681,2286,592,-802,-3902,-3158,-3595,4530,2877,-6684,-19656,0
159,-3347,4820,-1831,-2058,-4513,2032,9722,-1891,1371,-4835,53,1474,1115,-812,-3628,-3434,-3512,4631,3717,-7239,-19416,0
160,-3261,4962,-1960,-2077,-4426,2483,10157,-2178,1639,-4613,732,668,1546,-870,-3399,-3588,-3536,4600,4376,-7583,-19233,0
161,-3128,5173,-2103,-2184,-4224,3173,10547,-2474,1697,-4510,1284,-52,1852,-938,-3228,-3620,-3647,4403,4794,-7640,-19112,0
162,-2964,5439,-2239,-2356,-4017,4055,10771,-2727,1582,-4490,1659,-615,2028,-964,-3114,-3525,-3820,4039,4965,-7385,-19043,0
163,-2803,5713,-2345,-2573,-3922,5019,10700,-2895,1348,-4501,1836,-975,2089,-898,-3044,-3302,-4033,3534,4930,-6850,-19006,0
164,-2685,5934,-2402,-2817,-4026,5910,10254,-2950,1059,-4489,1831,-1110,2072,-706,-2994,-2957,-4267,2917,4765,-6107,-18976,0
165,-2637,6046,-2393,-3072,-4367,6580,9448,-2884,775,-4415,1693,-1027,2025,-380,-2929,-2501,-4502,2223,4563,-5258,-18935,0
166,-2663,6030,-2310,-3315,-4914,6924,8394,-2705,545,-4260,1495,-751,1999,66,-2811,-1961,-4717,1491,4412,-4403,-18868,0
167,-2735,5902,-2147,-3518,-5576,6914,7274,-2430,409,-4029,1318,-324,2037,593,-2601,-1376,-4884,775,4377,-3630,-18768,0
168,-2805,5715,-1908,-3646,-6216,6598,6283,-2084,388,-3743,1229,203,2171,1155,-2272,-794,-4971,155,4489,-3002,-18632,0
169,-2819,5540,-1602,-3664,-6685,6087,5581,-1695,489,-3436,1268,770,2400,1690,-1821,-279,-4947,-276,4738,-2555,-18457,0
170,-2730,5440,-1242,-3544,-6857,5515,5260,-1304,704,-3148,1431,1309,2708,2135,-1277,111,-4790,-426,5070,-2308,-18236,0
171,-2511,5460,-848,-3279,-6652,5006,5345,-961,1001,-2926,1680,1746,3045,2417,-701,307,-4497,-241,5395,-2262,-17957,0
172,-2160,5616,-439,-2886,-6060,4642,5815,-727,1339,-2817,1952,2006,3351,2464,-183,249,-4090,261,5607,-2405,-17607,0
173,-1700,5894,-46,-2411,-5135,4454,6619,-664,1670,-2866,2173,2025,3563,2213,174,-108,-3618,976,5596,-2708,-17169,0
174,-1172,6265,311,-1926,-3988,4420,7687,-826,1945,-3103,2277,1756,3618,1629,273,-787,-3148,1729,5276,-3126,-16635,0
175,-629,6684,609,-1510,-2758,4484,8922,-1237,2125,-3539,2218,1190,3478,721,46,-1767,-2757,2312,4604,-3600,-16002,0
176,-132,7101,826,-1241,-1592,4568,10184,-1885,2184,-4153,1973,367,3126,-452,-535,-2985,-2516,2541,3590,-4057,-15285,0
177,257,7465,948,-1173,-619,4593,11295,-2714,2110,-4897,1541,-635,2574,-1781,-1447,-4332,-2475,2305,2295,-4430,-14514,0
178,480,7724,963,-1332,64,4496,12057,-3635,1904,-5698,945,-1698,1852,-3126,-2620,-5667,-2654,1598,824,-4662,-13733,0
179,496,7831,867,-1710,405,4243,12300,-4540,1573,-6478,223,-2696,999,-4345,-3952,-6839,-3044,520,-696,-4720,-13000,0
180,286,7752,665,-2269,400,3840,11935,-5325,1137,-7161,-571,-3505,62,-5315,-5325,-7714,-3607,-751,-2134,-4591,-12376,0
181,-137,7479,373,-2950,91,3340,10987,-5904,613,-7692,-1373,-4032,-914,-5958,-6623,-8196,-4285,-2005,-3373,-4281,-11916,0
182,-726,7037,13,-3685,-443,2836,9601,-6219,29,-8041,-2117,-4219,-1895,-6236,-7745,-8242,-5011,-3043,-4324,-3804,-11663,0
183,-1409,6487,-385,-4402,-1099,2449,8003,-6241,-587,-8202,-2749,-4047,-2833,-6153,-8621,-7864,-5717,-3715,-4929,-3173,-11641,0
184,-2092,5918,-792,-5041,-1774,2296,6439,-5972,-1197,-8190,-3232,-3526,-3684,-5735,-9215,-7124,-6341,-3935,-5164,-2406,-11847,0
185,-2695,5429,-1182,-5554,-2390,2458,5108,-5439,-1762,-8032,-3561,-2694,-4400,-5025,-9521,-6112,-6836,-3671,-5040,-1533,-12256,0
186,-3159,5100,-1536,-5915,-2909,2951,4122,-4692,-2239,-7758,-3759,-1611,-4937,-4076,-9564,-4936,-7176,-2947,-4597,-604,-12818,0
187,-3464,4967,-1841,-6122,-3341,3710,3493,-3802,-2585,-7403,-3872,-359,-5256,-2954,-9388,-3702,-7358,-1823,-3902,302,-13469,0
188,-3627,5005,-2091,-6197,-3729,4601,3158,-2860,-2764,-6996,-3952,960,-5336,-1743,-9046,-2507,-7404,-392,-3036,1089,-14134,0
189,-3696,5137,-2279,-6184,-4132,5445,3026,-1967,-2748,-6567,-4043,2232,-5176,-538,-8593,-1427,-7360,1224,-2084,1658,-14742,0
190,-3733,5250,-2402,-6137,-4594,6071,3011,-1216,-2532,-6141,-4162,3346,-4795,563,-8076,-511,-7281,2871,-1128,1932,-15242,0
191,-3792,5235,-2457,-6106,-5123,6352,3058,-686,-2141,-5748,-4301,4209,-4230,1473,-7530,215,-7224,4379,-233,1880,-15613,0
192,-3912,5021,-2451,-6128,-5689,6240,3145,-420,-1627,-5419,-4427,4763,-3533,2131,-6974,757,-7229,5577,553,1520,-15867,0
193,-4100,4601,-2400,-6217,-6228,5770,3271,-432,-1066,-5187,-4499,4986,-2760,2515,-6417,1141,-7316,6326,1207,918,-16054,0
194,-4344,4027,-2335,-6361,-6673,5050,3437,-703,-538,-5082,-4477,4892,-1967,2636,-5858,1413,-7477,6550,1725,160,-16243,0
195,-4612,3399,-2288,-6535,-6970,4220,3641,-1191,-110,-5125,-4336,4518,-1203,2539,-5291,1621,-7686,6263,2124,-669,-16503,0
196,-4868,2823,-2293,-6704,-7104,3424,3879,-1845,186,-5317,-4069,3914,-504,2284,-4711,1819,-7908,5564,2437,-1508,-16883,0
197,-5084,2379,-2371,-6846,-7097,2774,4155,-2609,351,-5634,-3690,3132,115,1936,-4117,2045,-8111,4627,2709,-2327,-17398,0
198,-5247,2097,-2524,-6949,-7005,2334,4477,-3433,419,-6025,-3229,2222,654,1554,-3515,2316,-8276,3657,2986,-3121,-18023,0
199,-5361,1955,-2740,-7020,-6897,2114,4856,-4268,435,-6425,-2732,1229,1127,1183,-2919,2630,-8401,2844,3307,-3903,-18709,0
200,-5442,1895,-2998,-7081,-6840,2077,5288,-5079,430,-6767,-2257,193,1549,851,-2354,2963,-8499,2318,3692,-4690,-19396,0
201,-5515,1849,-3277,-7164,-6884,2147,5737,-5844,416,-7003,-1868,-856,1926,571,-1847,3275,-8597,2128,4132,-5501,-20037,0
202,-5606,1767,-3562,-7300,-7055,2228,6131,-6559,374,-7115,-1625,-1902,2251,329,-1421,3513,-8727,2234,4596,-6355,-20611,0
203,-5733,1632,-3852,-7518,-7361,2218,6366,-7239,274,-7123,-1578,-2950,2501,97,-1089,3625,-8919,2526,5029,-7274,-21122,0
204,-5907,1449,-4151,-7838,-7791,2026,6337,-7907,86,-7069,-1746,-4010,2648,-159,-849,3563,-9198,2862,5374,-8278,-21591,0
205,-6129,1241,-4464,-8264,-8327,1589,5975,-8580,-196,-7008,-2111,-5093,2671,-472,-681,3295,-9576,3104,5585,-9377,-22035,0
206,-6395,1029,-4790,-8786,-8942,889,5267,-9258,-559,-6984,-2617,-6182,2568,-862,-555,2805,-10050,3142,5639,-10555,-22456,0
207,-6694,821,-5118,-9377,-9604,-44,4274,-9911,-968,-7025,-3173,-7231,2355,-1323,-441,2095,-10601,2920,5536,-11765,-22833,0
208,-7018,609,-5431,-10001,-10270,-1138,3113,-10481,-1390,-7137,-3676,-8160,2063,-1830,-322,1194,-11197,2429,5297,-12932,-23127,0
209,-7359,382,-5713,-10617,-10893,-2300,1927,-10902,-1804,-7318,-4032,-8875,1722,-2344,-205,130,-11804,1700,4947,-13964,-23303,0
210,-7714,133,-5957,-11197,-11426,-3438,843,-11119,-2215,-7564,-4176,-9295,1350,-2828,-117,-1046,-12388,789,4502,-14782,-23341,0
211,-8079,-133,-6169,-11729,-11833,-4482,-53,-11107,-2648,-7879,-4088,-9382,942,-3262,-106,-2287,-12931,-243,3963,-15335,-23252,0
212,-8451,-398,-6366,-12217,-12093,-5398,-734,-10884,-3140,-8268,-3793,-9153,478,-3646,-222,-3536,-13428,-1341,3316,-15618,-23071,0
213,-8827,-639,-6568,-12681,-12210,-6182,-1211,-10507,-3714,-8734,-3356,-8676,-79,-4000,-504,-4735,-13886,-2461,2545,-15657,-22846,0
214,-9192,-833,-6788,-13136,-12204,-6839,-1524,-10050,-4374,-9262,-2862,-8054,-749,-4351,-963,-5825,-14314,-3568,1648,-15497,-22623,0
215,-9528,-966,-7025,-13588,-12109,-7369,-1707,-9591,-5090,-9818,-2398,-7394,-1532,-4721,-1575,-6746,-14715,-4639,646,-15180,-22420,0
216,-9805,-1029,-7264,-14019,-11955,-7753,-1777,-9201,-5812,-10357,-2037,-6793,-2401,-5122,-2283,-7446,-15077,-5659,-411,-14728,-22229,0
217,-9990,-1020,-7475,-14396,-11760,-7955,-1726,-8930,-6472,-10834,-1828,-6324,-3299,-5550,-3003,-7887,-15380,-6621,-1451,-14146,-22012,0
218,-10045,-926,-7624,-14676,-11527,-7938,-1537,-8821,-7006,-11224,-1787,-6037,-4152,-5991,-3650,-8047,-15595,-7525,-2387,-13433,-21715,0
219,-9938,-731,-7678,-14819,-11245,-7678,-1189,-8901,-7354,-11529,-1901,-5965,-4884,-6424,-4147,-7930,-15698,-8372,-3137,-12593,-21278,0
220,-9648,-406,-7613,-14799,-10904,-7182,-680,-9179,-7473,-11767,-2134,-6117,-5423,-6815,-4443,-7562,-15665,-9157,-3631,-11640,-20639,0
221,-9169,75,-7416,-14603,-10502,-6485,-27,-9638,-7335,-11961,-2435,-6473,-5719,-7127,-4520,-6986,-15484,-9858,-3820,-10591,-19730,0
222,-8514,732,-7086,-14234,-10053,-5647,723,-10223,-6931,-12115,-2754,-6974,-5744,-7301,-4391,-6253,-15145,-10436,-3680,-9453,-18471,0
223,-7718,1556,-6637,-13705,-9593,-4737,1502,-10841,-6277,-12208,-3051,-7523,-5499,-7279,-4095,-5413,-14650,-10837,-3214,-8211,-16767,0
224,-6839,2514,-6101,-13043,-9167,-3821,2228,-11380,-5419,-12199,-3305,-7997,-5020,-7011,-3686,-4514,-14013,-11008,-2457,-6824,-14512,0
225,-5950,3537,-5522,-12291,-8821,-2953,2816,-11737,-4439,-12049,-3518,-8273,-4372,-6474,-3226,-3595,-13268,-10918,-1477,-5239,-11622,0
226,-5135,4540,-4963,-11509,-8586,-2177,3190,-11844,-3448,-11743,-3707,-8260,-3641,-5687,-2768,-2689,-12476,-10576,-368,-3418,-8055,0
227,-4474,5432,-4494,-10773,-8474,-1529,3302,-11695,-2574,-11309,-3901,-7925,-2921,-4718,-2353,-1826,-11718,-10037,753,-1362,-3853,0
228,-4031,6138,-4180,-10169,-8477,-1037,3138,-11338,-1937,-10816,-4125,-7290,-2291,-3665,-2003,-1027,-11084,-9399,1770,875,848,0
229,-3841,6611,-4069,-9768,-8577,-721,2721,-10861,-1625,-10356,-4390,-6426,-1799,-2638,-1715,-309,-10655,-8772,2588,3190,5821,0
230,-3900,6847,-4181,-9614,-8750,-579,2104,-10356,-1672,-10014,-4690,-5420,-1454,-1729,-1462,322,-10478,-8253,3148,5449,10773,0
231,-4168,6875,-4495,-9708,-8980,-582,1361,-9890,-2054,-9838,-5004,-4352,-1223,-988,-1201,869,-10557,-7901,3443,7514,15383,0
232,-4573,6751,-4956,-10002,-9259,-670,570,-9489,-2697,-9820,-5297,-3278,-1044,-420,-882,1350,-10849,-7717,3515,9271,19340,0
233,-5027,6541,-5479,-10410,-9577,-754,-194,-9134,-3491,-9899,-5534,-2226,-843,18,-461,1789,-11269,-7654,3447,10642,22368,0
234,-5440,6306,-5971,-10825,-9917,-741,-870,-8778,-4316,-9978,-5683,-1211,-550,394,92,2223,-11719,-7629,3342,11587,24244,0
235,-5735,6094,-6346,-11147,-10247,-543,-1403,-8367,-5063,-9950,-5719,-246,-114,792,783,2686,-12098,-7554,3312,12092,24796,0
236,-5861,5939,-6543,-11300,-10521,-112,-1749,-7858,-5641,-9727,-5624,651,499,1289,1594,3217,-12331,-7351,3450,12151,23914,0
237,-5799,5864,-6536,-11250,-10686,547,-1866,-7235,-5994,-9256,-5389,1448,1299,1945,2489,3844,-12373,-6973,3827,11762,21559,0
238,-5557,5882,-6333,-11005,-10694,1371,-1723,-6513,-6092,-8535,-5012,2108,2288,2794,3418,4587,-12219,-6399,4485,10920,17793,0
239,-5167,6002,-5975,-10614,-10517,2250,-1296,-5739,-5933,-7611,-4500,2593,3452,3829,4330,5444,-11900,-5641,5426,9625,12795,0
240,-4678,6220,-5523,-10153,-10154,3044,-581,-4988,-5544,-6579,-3869,2872,4767,5007,5176,6391,-11478,-4718,6612,7891,6875,0
241,-4151,6516,-5045,-9708,-9633,3613,400,-4353,-4977,-5563,-3150,2922,6196,6235,5911,7374,-11032,-3659,7970,5759,462,0
242,-3652,6841,-4604,-9365,-9000,3844,1603,-3928,-4302,-4704,-2384,2735,7678,7386,6498,8312,-10650,-2494,9389,3300,-5950,0
243,-3241,7128,-4248,-9189,-8307,3674,2948,-3792,-3605,-4129,-1617,2319,9137,8316,6903,9107,-10410,-1256,10738,618,-11865,0
244,-2966,7308,-4002,-9215,-7603,3108,4336,-3988,-2976,-3926,-892,1704,10480,8887,7098,9658,-10362,18,11886,-2158,-16866,0
245,-2845,7326,-3868,-9434,-6916,2222,5652,-4499,-2495,-4121,-243,943,11612,8996,7062,9878,-10514,1287,12720,-4881,-20681,0
246,-2862,7178,-3825,-9798,-6259,1154,6777,-5251,-2221,-4663,315,109,12450,8609,6792,9712,-10827,2502,13169,-7404,-23214,0
247,-2963,6911,-3837,-10219,-5632,89,7608,-6117,-2188,-5431,779,-722,12929,7745,6302,9145,-11217,3608,13205,-9584,-24541,0
248,-3071,6624,-3862,-10588,-5027,-777,8070,-6949,-2403,-6258,1157,-1480,13019,6494,5626,8208,-11572,4546,12846,-11307,-24871,0
249,-3101,6435,-3867,-10798,-4448,-1269,8129,-7611,-2848,-6973,1452,-2130,12712,4984,4812,6970,-11779,5261,12141,-12497,-24495,0
250,-2994,6442,-3834,-10771,-3912,-1270,7797,-8014,-3489,-7437,1657,-2672,12029,3359,3917,5523,-11757,5699,11149,-13130,-23719,0
251,-2728,6689,-3764,-10475,-3448,-754,7133,-8133,-4278,-7579,1752,-3144,11014,1753,2997,3976,-11472,5821,9930,-13237,-22821,0
252,-2333,7151,-3673,-9934,-3097,214,6240,-8007,-5159,-7404,1713,-3600,9732,273,2098,2431,-10947,5610,8545,-12910,-22020,0
253,-1871,7742,-3584,-9221,-2891,1481,5246,-7721,-6067,-6986,1520,-4090,8274,-1005,1262,985,-10256,5084,7059,-12279,-21459,0
254,-1418,8354,-3514,-8441,-2845,2842,4292,-7374,-6927,-6435,1177,-4635,6752,-2030,518,-278,-9499,4304,5554,-11497,-21206,0
255,-1037,8887,-3464,-7705,-2950,4080,3505,-7053,-7663,-5867,710,-5222,5292,-2776,-105,-1295,-8782,3374,4132,-10715,-21260,0
256,-759,9280,-3424,-7109,-3175,5004,2972,-6816,-8207,-5375,169,-5804,4015,-3232,-590,-2024,-8194,2424,2908,-10056,-21562,0
257,-587,9515,-3370,-6724,-3473,5483,2726,-6686,-8513,-5014,-389,-6322,3018,-3407,-925,-2450,-7798,1589,1987,-9602,-22015,0
258,-506,9605,-3284,-6590,-3793,5458,2740,-6658,-8568,-4801,-919,-6714,2355,-3325,-1115,-2585,-7629,972,1441,-9380,-22504,0
259,-500,9561,-3156,-6714,-4086,4941,2941,-6706,-8396,-4719,-1390,-6936,2030,-3032,-1178,-2465,-7698,619,1293,-9366,-22918,0
260,-564,9382,-2990,-7078,-4306,4010,3238,-6795,-8056,-4728,-1793,-6960,1997,-2584,-1145,-2138,-7995,514,1512,-9492,-23180,0
261,-711,9045,-2806,-7641,-4416,2788,3556,-6887,-7624,-4783,-2131,-6781,2182,-2040,-1053,-1654,-8489,575,2017,-9664,-23257,0
262,-954,8522,-2627,-8337,-4389,1426,3862,-6947,-7183,-4837,-2400,-6417,2500,-1450,-933,-1052,-9128,688,2699,-9782,-23167,0
263,-1299,7805,-2480,-9085,-4213,83,4168,-6951,-6810,-4855,-2592,-5911,2875,-852,-810,-357,-9842,732,3443,-9763,-22968,0
264,-1734,6919,-2385,-9795,-3900,-1101,4513,-6896,-6564,-4820,-2691,-5334,3251,-271,-698,416,-10546,610,4139,-9563,-22739,0
265,-2234,5938,-2357,-10378,-3497,-2016,4930,-6803,-6492,-4741,-2686,-4782,3591,275,-599,1251,-11155,267,4698,-9184,-22554,0
266,-2752,4962,-2408,-10763,-3081,-2603,5410,-6714,-6623,-4645,-2581,-4362,3872,775,-508,2128,-11594,-309,5059,-8669,-22467,0
267,-3247,4106,-2543,-10908,-2750,-2848,5898,-6676,-6966,-4575,-2400,-4160,4082,1220,-415,3015,-11817,-1090,5196,-8082,-22491,0
268,-3682,3469,-2762,-10802,-2603,-2774,6293,-6721,-7505,-4564,-2186,-4214,4216,1614,-300,3877,-11803,-2021,5128,-7482,-22609,0
269,-4027,3122,-3047,-10465,-2713,-2421,6489,-6841,-8190,-4621,-1981,-4489,4279,1975,-137,4680,-11564,-3025,4921,-6900,-22777,0
270,-4258,3097,-3369,-9942,-3112,-1836,6411,-6985,-8935,-4720,-1817,-4878,4289,2346,99,5402,-11134,-4022,4675,-6330,-22947,0
271,-4359,3386,-3687,-9293,-3776,-1065,6045,-7067,-9630,-4807,-1702,-5232,4271,2771,430,6031,-10568,-4932,4509,-5738,-23083,0
272,-4325,3942,-3958,-8589,-4635,-158,5441,-6998,-10157,-4818,-1626,-5402,4256,3293,849,6566,-9930,-5690,4522,-5089,-23164,0
273,-4176,4680,-4152,-7908,-5582,811,4700,-6728,-10419,-4709,-1566,-5293,4267,3921,1327,6998,-9297,-6261,4766,-4377,-23195,0
274,-3956,5479,-4259,-7333,-6499,1735,3945,-6270,-10360,-4486,-1504,-4895,4312,4618,1801,7314,-8750,-6640,5221,-3645,-23190,0
275,-3741,6193,-4296,-6944,-7274,2478,3288,-5712,-9983,-4210,-1438,-4293,4379,5298,2186,7487,-8372,-6863,5795,-2987,-23170,0
276,-3622,6670,-4299,-6812,-7821,2884,2811,-5202,-9348,-3993,-1379,-3644,4438,5837,2391,7488,-8234,-6987,6347,-2529,-23146,0
277,-3679,6781,-4308,-6980,-8087,2831,2564,-4903,-8551,-3959,-1351,-3129,4448,6106,2339,7291,-8386,-7077,6723,-2392,-23119,0
278,-3961,6458,-4355,-7456,-8063,2255,2566,-4954,-7707,-4208,-1381,-2913,4367,5999,1985,6886,-8840,-7182,6797,-2656,-23078,0
279,-4454,5721,-4453,-8200,-7773,1194,2811,-5426,-6918,-4780,-1486,-3101,4167,5457,1328,6283,-9564,-7320,6502,-3338,-23010,0
280,-5085,4680,-4588,-9126,-7274,-218,3270,-6309,-6257,-5634,-1671,-3726,3837,4490,410,5513,-10479,-7466,5852,-4384,-22906,0
281,-5733,3520,-4727,-10118,-6638,-1763,3894,-7511,-5760,-6657,-1927,-4747,3395,3173,-685,4622,-11474,-7565,4934,-5683,-22768,0
282,-6258,2457,-4829,-11052,-5946,-3192,4616,-8887,-5422,-7689,-2228,-6065,2888,1636,-1839,3668,-12423,-7551,3892,-7097,-22614,0
283,-6542,1687,-4859,-11819,-5273,-4279,5357,-10267,-5214,-8570,-2535,-7543,2389,44,-2920,2711,-13214,-7363,2901,-8482,-22468,0
284,-6518,1330,-4795,-12352,-4684,-4876,6046,-11492,-5087,-9169,-2798,-9030,1984,-1430,-3790,1810,-13770,-6972,2129,-9725,-22354,0
285,-6192,1405,-4637,-12638,-4232,-4939,6638,-12442,-4987,-9420,-2962,-10383,1755,-2635,-4338,1018,-14065,-6388,1705,-10746,-22281,0
286,-5640,1824,-4406,-12710,-3958,-4542,7115,-13050,-4867,-9323,-2979,-11483,1761,-3464,-4495,374,-14126,-5658,1699,-11516,-22241,0
287,-4987,2419,-4135,-12637,-3889,-3845,7494,-13309,-4690,-8936,-2816,-12256,2020,-3875,-4254,-95,-14018,-4854,2105,-12043,-22205,0
288,-4376,2991,-3868,-12497,-4042,-3049,7800,-13257,-4445,-8352,-2471,-12679,2499,-3895,-3670,-387,-13825,-4054,2846,-12366,-22131,0
289,-3934,3361,-3641,-12348,-4416,-2346,8048,-12970,-4138,-7672,-1971,-12779,3121,-3610,-2856,-516,-13620,-3322,3785,-12540,-21980,0
290,-3737,3417,-3479,-12220,-4997,-1867,8223,-12530,-3798,-6983,-1372,-12621,3781,-3140,-1949,-516,-13446,-2696,4758,-12619,-21728,0
291,-3798,3146,-3392,-12101,-5756,-1655,8281,-12011,-3467,-6339,-743,-12287,4370,-2613,-1090,-432,-13306,-2185,5606,-12641,-21375,0
292,-4065,2629,-3369,-11949,-6650,-1659,8165,-11457,-3188,-5761,-157,-11849,4798,-2128,-385,-312,-13165,-1771,6205,-12618,-20949,0
293,-4432,2026,-3385,-11712,-7624,-1755,7834,-10879,-2989,-5235,327,-11356,5012,-1746,108,-202,-12968,-1426,6489,-12535,-20498,0
294,-4768,1532,-3405,-11342,-8611,-1790,7290,-10263,-2879,-4730,666,-10824,5001,-1477,377,-137,-12662,-1115,6453,-12356,-20076,0
295,-4946,1328,-3394,-10816,-9534,-1626,6595,-9578,-2837,-4205,833,-10248,4790,-1299,445,-148,-12212,-811,6141,-12042,-19728,0
296,-4872,1537,-3326,-10149,-10308,-1186,5863,-8803,-2818,-3628,821,-9612,4431,-1169,350,-253,-11622,-499,5630,-11570,-19481,0
297,-4512,2186,-3184,-9388,-10846,-483,5235,-7938,-2764,-2981,635,-8912,3990,-1047,132,-457,-10930,-168,5006,-10952,-19335,0
298,-3893,3204,-2965,-8612,-11079,377,4849,-7011,-2620,-2273,301,-8163,3540,-904,-179,-756,-10209,196,4350,-10245,-19268,0
299,-3106,4427,-2684,-7913,-10965,1216,4801,-6079,-2349,-1539,-136,-7401,3145,-734,-562,-1134,-9547,609,3723,-9547,-19244,0
300,-2282,5634,-2365,-7380,-10511,1818,5124,-5216,-1940,-834,-618,-6679,2860,-546,-998,-1560,-9035,1095,3172,-8984,-19220,0
301,-1567,6600,-2039,-7086,-9777,1982,5787,-4500,-1422,-231,-1079,-6054,2709,-365,-1469,-1997,-8743,1669,2717,-8676,-19163,0
302,-1089,7139,-1747,-7075,-8870,1571,6694,-4003,-850,199,-1468,-5576,2688,-229,-1952,-2401,-8718,2324,2363,-8708,-19053,0
303,-933,7148,-1523,-7354,-7930,544,7712,-3781,-309,388,-1761,-5284,2753,-180,-2428,-2728,-8970,3011,2092,-9102,-18885,0
304,-1125,6624,-1395,-7897,-7102,-1021,8686,-3868,108,289,-1973,-5197,2833,-255,-2874,-2937,-9475,3637,1871,-9800,-18669,0
305,-1629,5663,-1385,-8642,-6513,-2944,9464,-4269,311,-116,-2149,-5316,2845,-479,-3271,-2989,-10182,4076,1657,-10672,-18423,0
306,-2360,4437,-1497,-9507,-6247,-4969,9922,-4958,233,-814,-2347,-5621,2719,-847,-3597,-2849,-11015,4199,1404,-11539,-18165,0
307,-3201,3153,-1725,-10396,-6341,-6818,9977,-5876,-161,-1759,-2615,-6074,2420,-1317,-3818,-2485,-11885,3911,1081,-12209,-17911,0
308,-4031,2014,-2048,-11213,-6780,-8239,9602,-6935,-867,-2879,-2968,-6617,1960,-1811,-3893,-1870,-12701,3180,680,-12521,-17669,0
309,-4748,1180,-2439,-11878,-7505,-9065,8826,-8031,-1841,-4087,-3382,-7182,1398,-2231,-3777,-992,-13382,2058,218,-12384,-17443,0
310,-5288,739,-2870,-12335,-8429,-9243,7727,-9059,-3011,-5295,-3803,-7700,821,-2483,-3433,139,-13865,664,-260,-11791,-17232,0
311,-5635,699,-3318,-12562,-9449,-8847,6420,-9934,-4283,-6422,-4167,-8111,324,-2503,-2849,1484,-14120,-837,-696,-10827,-17029,0
312,-5817,988,-3767,-12570,-10467,-8059,5028,-10601,-5560,-7402,-4413,-8375,-12,-2271,-2043,2977,-14148,-2284,-1034,-9647,-16830,0
313,-5897,1478,-4208,-12404,-11396,-7127,3674,-11034,-6746,-8179,-4507,-8472,-135,-1816,-1071,4524,-13985,-3540,-1228,-8438,-16627,0
314,-5952,2015,-4633,-12124,-12179,-6307,2461,-11231,-7752,-8705,-4438,-8398,-22,-1197,-12,6022,-13686,-4512,-1249,-7380,-16409,0
315,-6052,2443,-5034,-11789,-12793,-5804,1473,-11196,-8498,-8931,-4215,-8157,322,-482,1047,7372,-13316,-5151,-1091,-6607,-16167,0
316,-6247,2640,-5395,-11449,-13248,-5729,778,-10928,-8915,-8814,-3862,-7756,879,276,2024,8490,-12931,-5445,-759,-6188,-15890,0
317,-6553,2541,-5694,-11134,-13581,-6082,433,-10429,-8950,-8326,-3405,-7203,1625,1058,2863,9318,-12573,-5402,-274,-6119,-15576,0
318,-6957,2126,-5907,-10859,-13844,-6770,484,-9713,-8579,-7477,-2873,-6519,2533,1853,3529,9825,-12266,-5056,338,-6345,-15228,0
319,-7426,1435,-6021,-10633,-14090,-7650,957,-8829,-7816,-6330,-2302,-5752,3576,2669,4013,10006,-12029,-4472,1043,-6785,-14863,0
320,-7923,541,-6039,-10471,-14353,-8577,1843,-7871,-6724,-5014,-1737,-4982,4713,3489,4327,9878,-11880,-3751,1799,-7362,-14502,0
321,-8415,-462,-5985,-10404,-14644,-9449,3085,-6981,-5413,-3710,-1234,-4321,5890,4273,4482,9475,-11850,-3022,2555,-8020,-14167,0
322,-8882,-1473,-5906,-10476,-14951,-10221,4563,-6324,-4031,-2625,-857,-3895,7024,4953,4495,8843,-11977,-2430,3253,-8734,-13871,0
323,-9315,-2393,-5860,-10731,-15246,-10905,6107,-6050,-2745,-1948,-664,-3813,8020,5444,4379,8034,-12299,-2099,3831,-9494,-13616,0
324,-9712,-3134,-5903,-11197,-15500,-11534,7509,-6251,-1714,-1809,-698,-4139,8765,5667,4152,7106,-12839,-2110,4229,-10286,-13386,0
325,-10066,-3628,-6076,-11872,-15698,-12139,8565,-6934,-1065,-2248,-975,-4862,9158,5569,3823,6113,-13591,-2480,4399,-11083,-13155,0
326,-10370,-3833,-6392,-12715,-15843,-12725,9105,-8018,-873,-3211,-1480,-5901,9115,5137,3410,5105,-14510,-3170,4312,-11830,-12896,0
327,-10615,-3742,-6837,-13658,-15953,-13274,9032,-9349,-1150,-4564,-2169,-7115,8599,4400,2934,4120,-15524,-4105,3960,-12452,-12584,0
328,-10800,-3394,-7374,-14613,-16051,-13757,8338,-10742,-1850,-6134,-2981,-8337,7619,3422,2412,3184,-16540,-5207,3355,-12873,-12205,0
329,-10938,-2875,-7950,-15500,-16153,-14163,7107,-12023,-2874,-7740,-3849,-9412,6236,2291,1859,2317,-17471,-6414,2530,-13034,-11757,0
330,-11061,-2309,-8512,-16260,-16259,-14511,5493,-13066,-4092,-9229,-4712,-10231,4558,1102,1279,1527,-18254,-7683,1527,-12912,-11245,0
331,-11214,-1845,-9012,-16865,-16357,-14855,3692,-13805,-5359,-10495,-5521,-10746,2721,-55,669,823,-18854,-8988,391,-12530,-10674,0
332,-11452,-1625,-9418,-17318,-16434,-15269,1897,-14237,-6538,-11474,-6239,-10971,874,-1103,15,206,-19275,-10290,-831,-11957,-10053,0
333,-11817,-1758,-9713,-17637,-16489,-15814,266,-14401,-7517,-12146,-6841,-10966,-844,-1992,-697,-322,-19540,-11523,-2095,-11295,-9388,0
334,-12329,-2292,-9892,-17850,-16538,-16520,-1103,-14362,-8222,-12515,-7312,-10814,-2322,-2698,-1485,-768,-19685,-12595,-3357,-10655,-8693,0
335,-12971,-3199,-9964,-17976,-16614,-17358,-2179,-14189,-8628,-12611,-7648,-10599,-3494,-3232,-2356,-1150,-19738,-13399,-4575,-10139,-7990,0
336,-13691,-4372,-9941,-18023,-16743,-18247,-2987,-13946,-8754,-12484,-7861,-10386,-4346,-3638,-3315,-1497,-19719,-13851,-5705,-9815,-7311,0
337,-14409,-5644,-9845,-17991,-16931,-19069,-3583,-13692,-8660,-12205,-7976,-10222,-4920,-3985,-4354,-1849,-19635,-13922,-6715,-9704,-6696,0
338,-15031,-6826,-9699,-17882,-17148,-19698,-4040,-13480,-8427,-11865,-8030,-10134,-5300,-4353,-5456,-2246,-19488,-13651,-7572,-9776,-6176,0
339,-15478,-7738,-9532,-17709,-17332,-20035,-4408,-13355,-8142,-11561,-8062,-10140,-5597,-4819,-6593,-2718,-19291,-13150,-8269,-9965,-5768,0
340,-15703,-8266,-9373,-17504,-17411,-20036,-4720,-13356,-7886,-11385,-8103,-10252,-5921,-5432,-7727,-3273,-19072,-12582,-8819,-10180,-5461,0
341,-15706,-8375,-9256,-17319,-17331,-19721,-4989,-13505,-7719,-11405,-8164,-10479,-6357,-6202,-8812,-3891,-18879,-12121,-9257,-10332,-5218,0
342,-15539,-8130,-9210,-17216,-17078,-19177,-5218,-13808,-7680,-11655,-8231,-10826,-6952,-7097,-9800,-4526,-18774,-11920,-9634,-10351,-4982,0
343,-15294,-7664,-9258,-17262,-16690,-18534,-5413,-14248,-7787,-12132,-8273,-11289,-7705,-8048,-10647,-5112,-18822,-12079,-10006,-10197,-4689,0
344,-15085,-7162,-9414,-17504,-16245,-17939,-5592,-14797,-8040,-12806,-8251,-11849,-8577,-8965,-11320,-5574,-19072,-12635,-10417,-9864,-4288,0
345,-15019,-6806,-9678,-17967,-15840,-17523,-5784,-15418,-8429,-13628,-8138,-12474,-9505,-9764,-11797,-5842,-19549,-13565,-10895,-9377,-3747,0
346,-15176,-6737,-10044,-18640,-15565,-17380,-6029,-16078,-8929,-14552,-7928,-13119,-10417,-10379,-12076,-5861,-20242,-14796,-11440,-8775,-3073,0
347,-15592,-7025,-10492,-19484,-15487,-17544,-6368,-16749,-9511,-15533,-7642,-13731,-11254,-10777,-12167,-5593,-21105,-16226,-12038,-8104,-2293,0
348,-16250,-7654,-11003,-20435,-15642,-17991,-6839,-17406,-10142,-16531,-7329,-14249,-11974,-10964,-12091,-5023,-22068,-17740,-12661,-7402,-1461,0
349,-17092,-8531,-11554,-21418,-16042,-18644,-7469,-18025,-10794,-17512,-7047,-14615,-12564,-10973,-11881,-4161,-23050,-19231,-13292,-6693,-635,0
350,-18021,-9510,-12123,-22359,-16681,-19392,-8277,-18579,-11447,-18437,-6858,-14777,-13033,-10859,-11578,-3044,-23975,-20605,-13914,-5982,133,0
351,-18929,-10423,-12686,-23196,-17525,-20115,-9251,-19035,-12095,-19270,-6804,-14701,-13407,-10684,-11228,-1742,-24781,-21798,-14525,-5265,807,0
352,-19710,-11120,-13216,-23886,-18516,-20700,-10352,-19365,-12738,-19977,-6900,-14373,-13709,-10503,-10875,-347,-25429,-22769,-15114,-4532,1367,0
353,-20278,-11497,-13676,-24399,-19555,-21069,-11500,-19547,-13375,-20534,-7125,-13812,-13958,-10351,-10555,1032,-25899,-23504,-15655,-3777,1817,0
354,-20574,-11510,-14023,-24721,-20508,-21183,-12572,-19573,-13989,-20925,-7424,-13066,-14133,-10240,-10285,2286,-26182,-23999,-16088,-3011,2168,0
355,-20567,-11177,-14210,-24847,-21215,-21047,-13423,-19449,-14546,-21145,-7711,-12200,-14187,-10151,-10057,3326,-26276,-24252,-16324,-2266,2440,0
356,-20259,-10558,-14193,-24775,-21523,-20702,-13909,-19187,-14982,-21187,-7891,-11291,-14043,-10040,-9838,4098,-26177,-24252,-16262,-1588,2649,0
357,-19675,-9740,-13941,-24505,-21317,-20211,-13922,-18801,-15226,-21044,-7874,-10404,-13619,-9851,-9581,4585,-25883,-23978,-15814,-1038,2808,0
358,-18853,-8810,-13447,-24042,-20551,-19641,-13419,-18302,-15214,-20707,-7600,-9589,-12848,-9531,-9236,4803,-25393,-23397,-14933,-669,2920,0
359,-17846,-7833,-12727,-23398,-19254,-19043,-12434,-17695,-14904,-20166,-7054,-8868,-11711,-9048,-8766,4789,-24716,-22485,-13635,-519,2988,0
360,-16702,-6850,-11822,-22586,-17526,-18441,-11070,-16984,-14290,-19423,-6267,-8244,-10242,-8401,-8159,4592,-23863,-21233,-11992,-597,3008,0
361,-15466,-5868,-10790,-21619,-15509,-17822,-9471,-16179,-13406,-18496,-5319,-7701,-8531,-7622,-7425,4250,-22852,-19663,-10125,-874,2979,0
362,-14171,-4871,-9690,-20509,-13359,-17146,-7789,-15295,-12317,-17417,-4313,-7219,-6708,-6770,-6601,3800,-21698,-17825,-8167,-1293,2904,0
363,-12837,-3826,-8579,-19260,-11211,-16360,-6156,-14364,-11102,-16238,-3360,-6782,-4911,-5920,-5736,3270,-20410,-15805,-6242,-1777,2786,0
364,-11480,-2703,-7502,-17880,-9173,-15427,-4665,-13422,-9849,-15015,-2557,-6383,-3270,-5147,-4891,2682,-18998,-13708,-4445,-2255,2627,0
365,-10122,-1488,-6499,-16387,-7317,-14351,-3380,-12521,-8648,-13809,-1968,-6038,-1885,-4521,-4125,2053,-17484,-11655,-2842,-2681,2428,0
366,-8798,-198,-5608,-14825,-5696,-13186,-2344,-11721,-7585,-12676,-1622,-5786,-821,-4101,-3497,1396,-15912,-9766,-1474,-3050,2187,0
367,-7569,1111,-4869,-13267,-4355,-12031,-1594,-11085,-6747,-11667,-1510,-5685,-114,-3933,-3057,708,-14356,-8155,-377,-3399,1897,0
368,-6508,2352,-4323,-11811,-3339,-11003,-1170,-10666,-6212,-10822,-1597,-5800,230,-4045,-2844,-21,-12915,-6909,429,-3789,1550,0
369,-5690,3427,-4005,-10556,-2688,-10195,-1105,-10498,-6037,-10168,-1835,-6180,229,-4435,-2871,-807,-11690,-6082,931,-4280,1137,0
370,-5166,4253,-3929,-9577,-2428,-9633,-1403,-10575,-6238,-9707,-2175,-6832,-82,-5069,-3127,-1666,-10757,-5673,1132,-4899,648,0
371,-4941,4788,-4076,-8901,-2550,-9263,-2020,-10847,-6777,-9413,-2578,-7705,-645,-5874,-3578,-2594,-10141,-5630,1063,-5618,71,0
372,-4969,5048,-4390,-8496,-3000,-8960,-2852,-11219,-7551,-9235,-3024,-8688,-1392,-6746,-4167,-3573,-9804,-5844,778,-6356,-608,0
373,-5153,5096,-4781,-8287,-3674,-8569,-3739,-11571,-8409,-9102,-3512,-9631,-2245,-7575,-4835,-4561,-9660,-6175,346,-6997,-1404,0
374,-5373,5025,-5141,-8172,-4430,-7964,-4485,-11785,-9173,-8944,-4051,-10376,-3134,-8251,-5521,-5505,-9597,-6466,-166,-7433,-2325,0
375,-5511,4928,-5367,-8062,-5108,-7101,-4902,-11780,-9677,-8711,-4650,-10806,-3993,-8700,-6182,-6343,-9515,-6581,-695,-7595,-3371,0
376,-5484,4868,-5378,-7907,-5562,-6038,-4845,-11527,-9805,-8381,-5304,-10864,-4769,-8888,-6787,-7023,-9356,-6420,-1187,-7483,-4526,0
377,-5256,4868,-5131,-7698,-5680,-4928,-4247,-11057,-9513,-7972,-5984,-10571,-5415,-8828,-7322,-7508,-9114,-5938,-1592,-7168,-5757,0
378,-4842,4909,-4623,-7470,-5398,-3967,-3132,-10446,-8832,-7522,-6632,-10008,-5886,-8562,-7789,-7784,-8828,-5130,-1855,-6773,-7018,0
379,-4289,4950,-3884,-7271,-4701,-3338,-1606,-9788,-7854,-7079,-7175,-9285,-6139,-8155,-8197,-7862,-8556,-4031,-1921,-6441,-8266,0
380,-3663,4945,-2969,-7143,-3618,-3153,168,-9163,-6704,-6680,-7536,-8507,-6138,-7672,-8567,-7774,-8349,-2697,-1741,-6293,-9461,0
381,-3024,4869,-1943,-7102,-2204,-3420,2006,-8620,-5515,-6340,-7652,-7751,-5864,-7174,-8924,-7568,-8234,-1192,-1289,-6399,-10583,0
382,-2422,4719,-886,-7141,-539,-4046,3735,-8171,-4403,-6052,-7487,-7062,-5325,-6708,-9290,-7295,-8205,406,-583,-6771,-11634,0
383,-1892,4521,124,-7232,1275,-4866,5212,-7805,-3461,-5801,-7042,-6461,-4571,-6315,-9678,-7001,-8241,2009,305,-7363,-12627,0
384,-1462,4308,1002,-7353,3113,-5696,6335,-7507,-2759,-5580,-6354,-5969,-3685,-6017,-10085,-6720,-8318,3514,1255,-8097,-13579,0
385,-1161,4115,1656,-7497,4824,-6377,7036,-7278,-2354,-5405,-5486,-5618,-2781,-5833,-10491,-6467,-8431,4803,2116,-8887,-14502,0
386,-1027,3963,2005,-7681,6238,-6814,7277,-7144,-2288,-5317,-4523,-5456,-1981,-5778,-10862,-6242,-8601,5763,2736,-9662,-15393,0
387,-1089,3854,1991,-7943,7192,-6990,7050,-7150,-2588,-5378,-3551,-5536,-1397,-5854,-11159,-6032,-8865,6305,2996,-10379,-16238,0
388,-1369,3777,1593,-8317,7558,-6955,6373,-7339,-3254,-5648,-2650,-5893,-1110,-6058,-11348,-5819,-9260,6387,2834,-11026,-17018,0
389,-1863,3717,843,-8823,7273,-6807,5300,-7737,-4247,-6165,-1879,-6523,-1154,-6370,-11404,-5583,-9804,6029,2260,-11611,-17715,0
390,-2534,3659,-177,-9452,6363,-6664,3923,-8334,-5490,-6932,-1269,-7374,-1506,-6755,-11314,-5300,-10485,5305,1358,-12151,-18322,0
391,-3321,3598,-1348,-10166,4946,-6632,2363,-9080,-6874,-7913,-815,-8348,-2093,-7165,-11073,-4947,-11258,4327,260,-12657,-18846,0
392,-4145,3528,-2532,-10915,3215,-6790,755,-9902,-8275,-9038,-480,-9321,-2805,-7539,-10681,-4496,-12067,3218,-872,-13127,-19300,0
393,-4931,3442,-3604,-11648,1401,-7172,-768,-10706,-9577,-10226,-210,-10161,-3511,-7809,-10137,-3921,-12855,2088,-1895,-13537,-19699,0
394,-5624,3324,-4467,-12329,-264,-7762,-2091,-11403,-10686,-11391,59,-10751,-4084,-7910,-9447,-3202,-13586,1025,-2691,-13848,-20058,0
395,-6190,3156,-5069,-12938,-1582,-8493,-3128,-11907,-11537,-12454,378,-10995,-4425,-7783,-8621,-2331,-14239,87,-3207,-14002,-20384,0
396,-6619,2919,-5394,-13467,-2413,-9257,-3820,-12143,-12092,-13342,780,-10826,-4476,-7385,-7686,-1317,-14805,-680,-3430,-13937,-20680,0
397,-6912,2603,-5459,-13902,-2690,-9921,-4128,-12051,-12332,-13993,1272,-10211,-4226,-6691,-6679,-190,-15271,-1238,-3403,-13594,-20946,0
398,-7079,2216,-5299,-14227,-2418,-10364,-4033,-11592,-12259,-14354,1842,-9155,-3708,-5703,-5645,1009,-15621,-1555,-3181,-12941,-21186,0
399,-7134,1774,-4959,-14424,-1676,-10512,-3547,-10769,-11891,-14394,2470,-7718,-2991,-4460,-4632,2229,-15833,-1620,-2831,-11988,-21406,0
400,-7098,1300,-4498,-14486,-605,-10358,-2717,-9636,-11282,-14122,3138,-6019,-2162,-3037,-3681,3417,-15901,-1444,-2407,-10807,-21613,0
401,-7006,817,-3981,-14433,601,-9974,-1642,-8314,-10520,-13597,3832,-4235,-1320,-1548,-2818,4527,-15844,-1075,-1952,-9527,-21813,0
402,-6905,339,-3483,-14313,1724,-9487,-471,-6974,-9726,-12929,4541,-2581,-553,-131,-2053,5514,-15711,-592,-1490,-8318,-22010,0
403,-6841,-116,-3079,-14188,2557,-9038,620,-5810,-9040,-12262,5256,-1273,65,1072,-1382,6345,-15568,-84,-1038,-7359,-22201,0
404,-6850,-522,-2831,-14113,2945,-8731,1455,-4998,-8593,-11742,5955,-482,486,1938,-789,6990,-15474,371,-602,-6791,-22377,0
405,-6937,-836,-2775,-14111,2820,-8598,1904,-4648,-8474,-11480,6603,-300,690,2399,-250,7432,-15455,729,-186,-6687,-22528,0
406,-7072,-1000,-2908,-14155,2224,-8593,1908,-4785,-8712,-11521,7153,-716,686,2441,257,7659,-15488,989,210,-7027,-22646,0
407,-7197,-957,-3190,-14175,1296,-8612,1493,-5339,-9269,-11833,7553,-1631,507,2123,751,7676,-15503,1181,588,-7712,-22724,0
408,-7243,-665,-3548,-14077,243,-8540,762,-6168,-10046,-12317,7754,-2885,199,1554,1240,7498,-15405,1354,950,-8586,-22761,0
409,-7148,-109,-3902,-13770,-708,-8289,-141,-7092,-10909,-12829,7726,-4291,-184,876,1718,7151,-15104,1553,1297,-9482,-22757,0
410,-6875,687,-4176,-13195,-1366,-7826,-1059,-7936,-11713,-13217,7460,-5682,-593,243,2168,6667,-14540,1808,1634,-10253,-22717,0
411,-6421,1677,-4317,-12336,-1610,-7182,-1862,-8558,-12328,-13350,6975,-6934,-985,-218,2565,6082,-13697,2139,1968,-10806,-22648,0
412,-5810,2798,-4303,-11219,-1410,-6429,-2463,-8867,-12654,-13140,6314,-7970,-1325,-411,2877,5431,-12602,2557,2313,-11111,-22555,0
413,-5084,3988,-4137,-9906,-819,-5653,-2824,-8829,-12633,-12555,5541,-8758,-1581,-293,3075,4745,-11313,3075,2687,-11195,-22451,0
414,-4294,5191,-3841,-8471,45,-4933,-2947,-8464,-12256,-11614,4727,-9305,-1731,126,3131,4045,-9902,3714,3110,-11131,-22347,0
415,-3489,6356,-3447,-6998,1032,-4326,-2859,-7833,-11557,-10378,3942,-9638,-1756,782,3022,3343,-8445,4495,3594,-11012,-22261,0
416,-2712,7433,-2985,-5566,1991,-3861,-2595,-7025,-10611,-8945,3247,-9800,-1654,1567,2724,2637,-7015,5427,4131,-10938,-22209,0
417,-1999,8368,-2480,-4247,2800,-3539,-2177,-6147,-9515,-7432,2683,-9847,-1437,2350,2220,1911,-5675,6499,4689,-10988,-22207,0
418,-1372,9117,-1947,-3100,3388,-3342,-1606,-5306,-8373,-5962,2272,-9835,-1134,2995,1499,1144,-4481,7677,5213,-11213,-22262,0
419,-831,9658,-1395,-2164,3749,-3226,-861,-4589,-7274,-4646,2015,-9820,-785,3392,564,298,-3469,8906,5637,-11622,-22370,0
420,-353,10004,-818,-1447,3940,-3133,97,-4054,-6275,-3567,1902,-9846,-428,3474,-561,-655,-2653,10134,5899,-12190,-22514,0
421,105,10213,-217,-925,4062,-2999,1301,-3714,-5395,-2765,1914,-9937,-91,3226,-1831,-1739,-2016,11319,5954,-12865,-22666,0
422,595,10376,412,-545,4234,-2774,2758,-3544,-4623,-2233,2031,-10095,211,2684,-3192,-2969,-1515,12436,5784,-13592,-22790,0
423,1157,10584,1065,-240,4551,-2446,4425,-3488,-3933,-1921,2230,-10303,470,1908,-4591,-4347,-1094,13473,5393,-14324,-22856,0
424,1799,10906,1717,48,5055,-2054,6203,-3478,-3308,-1758,2483,-10533,679,974,-5994,-5866,-702,14414,4797,-15037,-22839,0
425,2488,11355,2328,349,5723,-1685,7943,-3459,-2756,-1675,2756,-10757,817,-54,-7388,-7503,-316,15221,4014,-15729,-22734,0
426,3145,11888,2847,656,6469,-1453,9473,-3403,-2316,-1625,3009,-10957,855,-1129,-8780,-9222,53,15834,3055,-16409,-22550,0
427,3672,12415,3212,923,7174,-1457,10631,-3315,-2047,-1600,3200,-11124,751,-2216,-10178,-10962,360,16171,1925,-17078,-22310,0
428,3971,12833,3367,1086,7721,-1745,11300,-3229,-2014,-1629,3292,-11257,479,-3286,-11572,-12635,542,16155,640,-17713,-22044,0
429,3979,13060,3276,1087,8028,-2287,11431,-3185,-2265,-1759,3263,-11354,32,-4304,-12921,-14131,546,15738,-766,-18264,-21778,0
430,3679,13054,2935,899,8068,-2982,11048,-3214,-2817,-2037,3114,-11398,-559,-5220,-14150,-15325,347,14930,-2237,-18654,-21535,0
431,3106,12825,2366,533,7866,-3687,10241,-3324,-3642,-2486,2864,-11358,-1242,-5971,-15165,-16104,-39,13795,-3687,-18801,-21329,0
432,2338,12420,1634,43,7493,-4261,9145,-3485,-4675,-3094,2556,-11185,-1942,-6493,-15874,-16377,-557,12449,-5014,-18636,-21164,0
433,1472,11908,816,-495,7039,-4611,7918,-3642,-5815,-3809,2242,-10829,-2587,-6731,-16209,-16101,-1128,11038,-6114,-18124,-21040,0
434,610,11365,7,-1000,6594,-4715,6717,-3726,-6943,-4556,1983,-10244,-3113,-6644,-16138,-15292,-1670,9705,-6893,-17278,-20950,0
435,-161,10856,-708,-1410,6234,-4618,5679,-3673,-7937,-5250,1838,-9408,-3471,-6225,-15663,-14004,-2117,8565,-7275,-16152,-20884,0
436,-775,10440,-1270,-1689,6003,-4404,4910,-3444,-8688,-5818,1855,-8326,-3620,-5483,-14817,-12329,-2433,7696,-7210,-14837,-20831,0
437,-1202,10157,-1652,-1836,5908,-4164,4470,-3032,-9119,-6212,2062,-7034,-3527,-4454,-13647,-10369,-2611,7126,-6683,-13439,-20779,0
438,-1437,10029,-1867,-1879,5912,-3964,4366,-2474,-9201,-6415,2461,-5593,-3159,-3198,-12201,-8217,-2677,6841,-5709,-12065,-20715,0
439,-1513,10052,-1967,-1868,5940,-3837,4552,-1836,-8961,-6443,3022,-4080,-2497,-1787,-10533,-5951,-2679,6789,-4354,-10810,-20632,0
440,-1496,10179,-2028,-1869,5890,-3790,4943,-1205,-8474,-6341,3688,-2579,-1539,-306,-8694,-3628,-2683,6893,-2721,-9747,-20527,0
441,-1477,10325,-2133,-1958,5651,-3830,5435,-676,-7854,-6170,4382,-1174,-317,1157,-6740,-1290,-2766,7064,-952,-8928,-20405,0
442,-1558,10373,-2354,-2212,5139,-3975,5933,-339,-7223,-6003,5028,56,1106,2522,-4725,1028,-3007,7203,804,-8383,-20275,0
443,-1824,10200,-2737,-2700,4322,-4262,6373,-255,-6688,-5910,5570,1045,2644,3729,-2701,3295,-3473,7229,2412,-8118,-20151,0
444,-2332,9706,-3288,-3462,3242,-4733,6737,-460,-6318,-5948,5984,1738,4201,4741,-709,5474,-4208,7084,3780,-8120,-20042,0
445,-3082,8848,-3972,-4499,2011,-5413,7043,-957,-6133,-6152,6285,2099,5691,5556,1227,7539,-5211,6750,4880,-8353,-19953,0
446,-4022,7655,-4723,-5761,792,-6292,7325,-1700,-6108,-6525,6520,2122,7047,6197,3095,9454,-6432,6253,5744,-8764,-19883,0
447,-5055,6232,-5455,-7148,-235,-7317,7600,-2628,-6187,-7042,6751,1821,8226,6701,4888,11195,-7770,5652,6444,-9285,-19826,0
448,-6060,4729,-6080,-8526,-923,-8406,7853,-3652,-6307,-7654,7028,1237,9198,7105,6592,12738,-9093,5030,7063,-9844,-19772,0
449,-6921,3314,-6526,-9759,-1189,-9463,8024,-4686,-6411,-8301,7374,431,9936,7432,8176,14067,-10265,4470,7661,-10374,-19714,0
450,-7556,2124,-6751,-10735,-1031,-10410,8026,-5654,-6467,-8922,7767,-525,10410,7688,9588,15167,-11177,4040,8254,-10823,-19648,0
451,-7923,1249,-6747,-11391,-526,-11191,7770,-6501,-6463,-9465,8152,-1558,10589,7860,10769,16026,-11769,3782,8819,-11156,-19576,0
452,-8031,713,-6541,-11720,197,-11776,7201,-7195,-6408,-9889,8446,-2599,10458,7933,11662,16642,-12037,3709,9306,-11355,-19505,0
453,-7918,493,-6180,-11757,985,-12144,6318,-7723,-6314,-10158,8565,-3585,10027,7909,12236,17021,-12019,3814,9669,-11420,-19448,0
454,-7637,541,-5727,-11555,1694,-12270,5183,-8076,-6187,-10240,8446,-4465,9348,7807,12491,17179,-11773,4088,9884,-11355,-19415,0
455,-7235,810,-5237,-11160,2214,-12122,3907,-8242,-6018,-10098,8063,-5191,8518,7668,12462,17138,-11346,4520,9968,-11172,-19417,0
456,-6742,1272,-4754,-10591,2485,-11664,2629,-8207,-5782,-9695,7435,-5731,7647,7552,12203,16918,-10759,5108,9966,-10895,-19458,0
457,-6170,1916,-4304,-9840,2502,-10888,1491,-7954,-5436,-9001,6625,-6068,6857,7509,11779,16530,-10008,5855,9943,-10561,-19538,0
458,-5523,2738,-3890,-8891,2311,-9831,618,-7477,-4931,-8010,5734,-6213,6242,7566,11240,15966,-9077,6765,9958,-10234,-19653,0
459,-4804,3719,-3503,-7740,2003,-8589,100,-6795,-4219,-6748,4881,-6212,5862,7711,10623,15208,-7957,7831,10053,-10000,-19793,0
460,-4031,4810,-3123,-6417,1690,-7304,-11,-5959,-3273,-5283,4190,-6141,5728,7897,9940,14225,-6676,9036,10241,-9960,-19948,0
461,-3234,5931,-2730,-4994,1491,-6131,288,-5053,-2094,-3719,3767,-6096,5808,8038,9190,12990,-5295,10344,10509,-10207,-20107,0
462,-2451,6985,-2307,-3571,1500,-5197,953,-4185,-722,-2194,3677,-6181,6041,8038,8364,11487,-3909,11698,10820,-10799,-20261,0
463,-1718,7885,-1841,-2259,1775,-4563,1894,-3464,767,-846,3932,-6476,6343,7809,7447,9727,-2620,13027,11124,-11736,-20403,0
464,-1055,8577,-1324,-1147,2326,-4203,2983,-2982,2273,201,4481,-7025,6632,7290,6426,7745,-1513,14251,11365,-12948,-20524,0
465,-458,9062,-751,-283,3117,-4017,4074,-2792,3690,866,5224,-7820,6822,6460,5287,5600,-634,15297,11492,-14305,-20617,0
466,99,9393,-120,338,4088,-3865,5030,-2888,4936,1126,6032,-8800,6855,5347,4023,3366,17,16115,11467,-15645,-20674,0
467,665,9666,573,769,5163,-3608,5756,-3216,5971,1030,6777,-9867,6699,4023,2637,1122,483,16700,11272,-16810,-20691,0
468,1287,9986,1327,1090,6273,-3149,6216,-3666,6804,683,7363,-10901,6361,2593,1145,-1059,836,17090,10922,-17683,-20668,0
469,2006,10445,2134,1392,7362,-2451,6443,-4110,7487,232,7744,-11785,5886,1177,-419,-3121,1157,17367,10453,-18218,-20610,0
470,2833,11094,2974,1750,8387,-1547,6524,-4419,8090,-165,7930,-12428,5342,-113,-2010,-5033,1517,17628,9921,-18435,-20531,0
471,3747,11932,3816,2212,9315,-518,6571,-4497,8671,-378,7965,-12777,4809,-1196,-3580,-6787,1965,17951,9374,-18413,-20447,0
472,4688,12898,4607,2788,10119,520,6685,-4298,9252,-328,7910,-12829,4352,-2038,-5086,-8396,2515,18365,8837,-18264,-20376,0
473,5563,13882,5280,3443,10764,1436,6925,-3842,9802,-5,7816,-12626,4002,-2659,-6499,-9885,3140,18831,8297,-18105,-20330,0
474,6253,14738,5761,4099,11220,2099,7288,-3210,10247,521,7709,-12252,3751,-3127,-7811,-11277,3770,19242,7700,-18037,-20317,0
475,6639,15306,5981,4646,11460,2387,7719,-2532,10487,1132,7588,-11812,3550,-3542,-9020,-12585,4297,19451,6966,-18131,-20337,0
476,6613,15437,5885,4944,11468,2205,8126,-1957,10425,1663,7434,-11414,3327,-4012,-10134,-13803,4585,19304,6016,-18424,-20387,0
477,6107,15023,5447,4858,11251,1495,8410,-1628,9994,1952,7221,-11149,3001,-4624,-11151,-14906,4498,18682,4797,-18916,-20462,0
478,5108,14024,4674,4285,10837,257,8492,-1648,9171,1858,6928,-11068,2507,-5424,-12061,-15851,3922,17527,3310,-19566,-20559,0
479,3667,12485,3612,3176,10277,-1444,8331,-2060,7982,1296,6548,-11170,1808,-6402,-12847,-16588,2806,15853,1612,-20298,-20677,0
480,1894,10540,2339,1569,9638,-3476,7927,-2832,6496,255,6083,-11405,900,-7494,-13485,-17063,1180,13745,-186,-21003,-20814,0
481,-50,8398,946,-416,8987,-5652,7310,-3868,4807,-1198,5545,-11680,-182,-8590,-13954,-17229,-836,11341,-1944,-21557,-20967,0
482,-1988,6308,-469,-2585,8375,-7756,6525,-5019,3025,-2923,4951,-11886,-1371,-9557,-14234,-17052,-3051,8811,-3520,-21835,-21125,0
483,-3746,4516,-1820,-4708,7829,-9576,5618,-6115,1261,-4725,4320,-11919,-2577,-10261,-14312,-16506,-5233,6333,-4792,-21740,-21274,0
484,-5188,3217,-3038,-6563,7339,-10938,4632,-6997,-379,-6389,3679,-11702,-3699,-10589,-14170,-15583,-7157,4074,-5676,-21220,-21397,0
485,-6234,2516,-4086,-7979,6870,-11729,3605,-7539,-1814,-7716,3060,-11193,-4636,-10471,-13785,-14288,-8647,2171,-6129,-20278,-21481,0
486,-6872,2413,-4955,-8871,6370,-11920,2576,-7671,-2989,-8559,2500,-10389,-5305,-9882,-13131,-12638,-9614,714,-6149,-18968,-21520,0
487,-7155,2801,-5661,-9256,5792,-11563,1581,-7382,-3889,-8847,2031,-9317,-5652,-8846,-12179,-10665,-10066,-264,-5765,-17380,-21516,0
488,-7190,3493,-6245,-9241,5101,-10791,656,-6719,-4542,-8596,1674,-8016,-5660,-7419,-10914,-8408,-10103,-790,-5025,-15623,-21477,0
489,-7123,4258,-6759,-9001,4289,-9794,-174,-5770,-5012,-7899,1432,-6537,-5350,-5680,-9342,-5916,-9895,-952,-3984,-13803,-21411,0
490,-7105,4858,-7260,-8738,3372,-8799,-902,-4651,-5383,-6906,1282,-4928,-4775,-3716,-7502,-3241,-9637,-879,-2703,-12010,-21324,0
491,-7276,5098,-7797,-8643,2394,-8027,-1541,-3486,-5735,-5789,1189,-3235,-4008,-1612,-5465,-440,-9519,-713,-1240,-10314,-21213,0
492,-7730,4848,-8395,-8855,1407,-7671,-2114,-2385,-6126,-4713,1114,-1506,-3128,554,-3325,2431,-9683,-580,345,-8768,-21075,0
493,-8502,4065,-9054,-9446,478,-7853,-2646,-1437,-6568,-3812,1028,206,-2207,2708,-1184,5309,-10208,-557,1998,-7410,-20909,0
494,-9557,2798,-9741,-10402,-323,-8616,-3145,-699,-7037,-3171,928,1845,-1301,4782,868,8139,-11090,-659,3663,-6275,-20725,0
495,-10796,1180,-10394,-11639,-936,-9905,-3601,-197,-7477,-2825,835,3346,-445,6707,2766,10856,-12258,-838,5286,-5395,-20547,0
496,-12070,-597,-10941,-13019,-1317,-11586,-3987,62,-7824,-2765,791,4631,344,8413,4476,13399,-13582,-1012,6813,-4795,-20404,0
497,-13217,-2317,-11316,-14377,-1458,-13466,-4278,81,-8036,-2953,836,5613,1056,9828,5989,15701,-14906,-1093,8186,-4495,-20326,0
498,-14089,-3768,-11473,-15555,-1396,-15325,-4467,-138,-8106,-3337,989,6200,1685,10877,7306,17693,-16077,-1029,9344,-4500,-20336,0
499,-14582,-4789,-11402,-16427,-1211,-16953,-4581,-607,-8067,-3871,1232,6298,2211,11492,8420,19298,-16967,-833,10223,-4800,-20439,0
500,-14654,-5282,-11125,-16916,-1009,-18182,-4661,-1341,-7984,-4512,1506,5841,2605,11616,9309,20441,-17493,-570,10764,-5360,-20623,12587
501,-14324,-5227,-10693,-17000,-889,-18904,-4760,-2343,-7934,-5226,1726,4814,2827,11221,9929,21057,-17625,-344,10919,-6128,-20867,12587
502,-13651,-4670,-10164,-16704,-911,-19080,-4915,-3588,-7974,-5981,1799,3255,2839,10314,10228,21103,-17382,-260,10673,-7034,-21147,12587
503,-12723,-3703,-9596,-16093,-1069,-18735,-5129,-5015,-8130,-6740,1656,1283,2612,8947,10153,20567,-16818,-380,10039,-8004,-21442,12587
504,-11633,-2442,-9032,-15250,-1289,-17948,-5375,-6521,-8388,-7456,1266,-935,2137,7206,9667,19467,-16013,-702,9069,-8965,-21738,12587
505,-10468,-1001,-8503,-14265,-1456,-16838,-5616,-7979,-8704,-8081,644,-3205,1426,5208,8751,17851,-15054,-1163,7840,-9866,-22023,12587
506,-9305,507,-8030,-13226,-1448,-15542,-5820,-9267,-9020,-8567,-159,-5351,505,3074,7408,15781,-14027,-1655,6436,-10684,-22287,12587
507,-8212,1994,-7626,-12205,-1177,-14199,-5982,-10293,-9284,-8884,-1077,-7245,-585,917,5659,13324,-13008,-2063,4933,-11428,-22515,12587
508,-7244,3380,-7303,-11259,-616,-12930,-6123,-11014,-9455,-9022,-2041,-8835,-1797,-1176,3548,10544,-12053,-2290,3389,-12133,-22687,12587
509,-6436,4610,-7059,-10417,209,-11818,-6263,-11437,-9511,-8994,-2991,-10129,-3070,-3143,1158,7512,-11196,-2281,1844,-12844,-22787,5140
510,-5793,5651,-6878,-9682,1234,-10894,-6399,-11604,-9429,-8825,-3871,-11184,-4333,-4946,-1405,4308,-10445,-2016,334,-13600,-22806,5140
511,-5283,6500,-6724,-9032,2395,-10135,-6484,-11575,-9188,-8548,-4624,-12061,-5499,-6558,-3984,1035,-9780,-1502,-1101,-14417,-22751,5140
512,-4843,7185,-6545,-8432,3646,-9479,-6415,-11402,-8761,-8194,-5189,-12805,-6477,-7955,-6399,-2182,-9171,-768,-2406,-15279,-22645,5140
513,-4393,7751,-6280,-7845,4967,-8850,-6069,-11125,-8129,-7796,-5502,-13427,-7183,-9115,-8466,-5197,-8584,153,-3513,-16142,-22524,5140
514,-3862,8243,-5882,-7254,6351,-8195,-5336,-10764,-7298,-7383,-5516,-13904,-7560,-10012,-10027,-7867,-8003,1215,-4356,-16945,-22428,5140
515,-3213,8686,-5324,-6667,7789,-7506,-4158,-10329,-6310,-6989,-5216,-14190,-7590,-10625,-10986,-10067,-7435,2358,-4882,-17623,-22390,5140
516,-2461,9072,-4618,-6123,9247,-6828,-2560,-9828,-5246,-6642,-4631,-14239,-7298,-10934,-11322,-11707,-6914,3512,-5066,-18122,-22423,5140
517,-1666,9354,-3805,-5673,10666,-6240,-642,-9265,-4214,-6359,-3827,-14008,-6738,-10927,-11087,-12742,-6484,4605,-4917,-18400,-22524,5140
518,-922,9474,-2948,-5362,11972,-5820,1434,-8638,-3323,-6139,-2897,-13477,-5978,-10600,-10389,-13170,-6184,5577,-4468,-18437,-22673,0
519,-314,9381,-2119,-5207,13092,-5604,3489,-7940,-2657,-5956,-1924,-12638,-5083,-9960,-9366,-13029,-6028,6403,-3775,-18228,-22843,0
520,97,9071,-1383,-5186,13965,-5563,5358,-7155,-2255,-5767,-971,-11508,-4104,-9032,-8154,-12392,-5993,7095,-2904,-17786,-23005,0
521,301,8596,-786,-5243,14555,-5604,6915,-6271,-2111,-5528,-61,-10133,-3082,-7868,-6876,-11364,-6024,7702,-1925,-17143,-23139,0
522,332,8063,-364,-5301,14842,-5596,8085,-5291,-2182,-5209,811,-8591,-2056,-6548,-5629,-10080,-6053,8288,-916,-16355,-23231,0
523,253,7608,-131,-5288,14819,-5411,8841,-4241,-2417,-4812,1660,-6991,-1072,-5178,-4493,-8692,-6011,8898,48,-15490,-23275,0
524,131,7359,-91,-5159,14480,-4966,9196,-3177,-2773,-4373,2491,-5455,-189,-3874,-3536,-7362,-5858,9540,891,-14627,-23269,0
525,11,7399,-243,-4905,13825,-4247,9191,-2174,-3232,-3950,3286,-4100,530,-2742,-2808,-6227,-5588,10166,1547,-13835,-23213,0
526,-91,7742,-581,-4555,12860,-3305,8888,-1298,-3795,-3609,4007,-3002,1034,-1857,-2346,-5385,-5228,10679,1973,-13154,-23109,0
527,-195,8335,-1090,-4162,11611,-2240,8363,-592,-4474,-3400,4604,-2171,1293,-1240,-2158,-4862,-4832,10966,2152,-12583,-22965,0
528,-337,9078,-1748,-3792,10131,-1165,7695,-50,-5277,-3346,5038,-1543,1310,-857,-2217,-4613,-4459,10923,2101,-12073,-22794,0
529,-555,9852,-2522,-3502,8501,-183,6958,370,-6196,-3436,5290,-995,1117,-624,-2465,-4529,-4168,10494,1870,-11542,-22615,0
530,-878,10550,-3370,-3335,6819,628,6196,747,-7206,-3632,5370,-378,767,-425,-2813,-4458,-4003,9683,1528,-10894,-22448,0
531,-1313,11093,-4248,-3316,5180,1219,5420,1159,-8273,-3892,5303,431,313,-143,-3167,-4247,-3990,8557,1149,-10052,-22308,0
532,-1859,11434,-5111,-3450,3662,1564,4597,1651,-9364,-4177,5118,1491,-202,316,-3439,-3768,-4140,7225,801,-8974,-22198,0
533,-2504,11550,-5928,-3729,2306,1652,3660,2222,-10458,-4467,4828,2776,-750,1007,-3569,-2943,-4448,5811,536,-7670,-22106,0
534,-3239,11434,-6680,-4134,1122,1493,2536,2820,-11546,-4761,4425,4182,-1325,1935,-3530,-1753,-4895,4431,376,-6190,-22013,0
535,-4051,11093,-7360,-4632,95,1120,1175,3360,-12628,-5075,3883,5551,-1930,3060,-3327,-235,-5448,3173,323,-4613,-21893,0
536,-4923,10549,-7969,-5179,-795,596,-415,3745,-13696,-5427,3172,6721,-2571,4307,-2988,1532,-6057,2099,354,-3030,-21728,0
537,-5817,9848,-8509,-5720,-1555,12,-2154,3901,-14724,-5831,2279,7563,-3245,5579,-2555,3442,-6663,1252,437,-1526,-21515,0
538,-6673,9065,-8974,-6201,-2174,-531,-3894,3794,-15661,-6283,1218,8005,-3939,6773,-2070,5378,-7202,669,537,-173,-21266,0
539,-7413,8302,-9350,-6573,-2627,-937,-5452,3430,-16441,-6759,41,8037,-4623,7788,-1570,7224,-7621,387,623,960,-21009,0
540,-7951,7667,-9614,-6803,-2887,-1143,-6650,2853,-16993,-7219,-1171,7694,-5260,8540,-1087,8869,-7881,439,676,1812,-20777,0
541,-8216,7255,-9744,-6889,-2941,-1133,-7363,2121,-17266,-7615,-2323,7027,-5811,8962,-655,10220,-7975,843,687,2326,-20597,0
542,-8174,7117,-9729,-6851,-2802,-934,-7552,1285,-17245,-7909,-3327,6089,-6244,9008,-308,11197,-7923,1574,656,2456,-20482,0
543,-7839,7253,-9576,-6732,-2511,-602,-7265,379,-16959,-8080,-4117,4911,-6547,8656,-91,11743,-7768,2558,580,2181,-20427,0
544,-7275,7605,-9312,-6583,-2126,-198,-6622,-586,-16477,-8139,-4662,3513,-6735,7905,-51,11815,-7564,3666,454,1515,-20410,0
545,-6578,8077,-8979,-6449,-1711,228,-5789,-1610,-15893,-8125,-4960,1915,-6840,6773,-241,11391,-7363,4736,259,514,-20400,0
546,-5857,8561,-8623,-6359,-1320,647,-4925,-2695,-15304,-8099,-5039,147,-6920,5296,-697,10471,-7203,5607,-30,-736,-20361,0
547,-5212,8957,-8287,-6326,-989,1038,-4172,-3832,-14795,-8127,-4941,-1738,-7025,3525,-1445,9065,-7105,6154,-440,-2137,-20263,0
548,-4716,9195,-7994,-6348,-729,1373,-3628,-4998,-14422,-8270,-4719,-3667,-7213,1526,-2484,7206,-7077,6321,-995,-3600,-20079,0
549,-4409,9231,-7756,-6419,-535,1601,-3349,-6157,-14210,-8565,-4428,-5560,-7521,-625,-3789,4944,-7117,6128,-1706,-5065,-19791,0
550,-4310,9044,-7565,-6542,-388,1644,-3352,-7272,-14154,-9023,-4123,-7342,-7960,-2843,-5308,2356,-7228,5657,-2566,-6507,-19390,0
551,-4417,8625,-7413,-6729,-267,1410,-3612,-8313,-14217,-9627,-3853,-8958,-8512,-5041,-6962,-462,-7421,5026,-3545,-7931,-18876,0
552,-4721,7965,-7288,-7001,-148,820,-4062,-9261,-14339,-10338,-3651,-10369,-9118,-7131,-8648,-3385,-7708,4357,-4587,-9362,-18264,0
553,-5201,7068,-7183,-7374,-17,-159,-4593,-10110,-14434,-11101,-3524,-11553,-9681,-9027,-10240,-6269,-8096,3754,-5610,-10825,-17580,0
554,-5818,5958,-7091,-7846,141,-1497,-5050,-10854,-14397,-11849,-3442,-12500,-10076,-10654,-11603,-8960,-8577,3290,-6514,-12335,-16868,0
555,-6510,4693,-6998,-8388,333,-3089,-5261,-11488,-14114,-12509,-3343,-13205,-10166,-11949,-12604,-11310,-9115,3016,-7192,-13885,-16185,0
556,-7190,3373,-6888,-8943,570,-4776,-5065,-12006,-13491,-13016,-3148,-13677,-9840,-12881,-13137,-13199,-9651,2955,-7545,-15451,-15587,0
557,-7763,2119,-6738,-9435,856,-6374,-4361,-12406,-12480,-13321,-2784,-13950,-9049,-13447,-13148,-14555,-10115,3106,-7516,-16987,-15126,0
558,-8149,1054,-6535,-9794,1193,-7710,-3150,-12701,-11114,-13415,-2216,-14091,-7838,-13692,-12658,-15368,-10442,3431,-7112,-18435,-14840,0
559,-8305,268,-6285,-9969,1568,-8657,-1552,-12928,-9515,-13329,-1474,-14195,-6359,-13697,-11765,-15695,-10592,3849,-6416,-19725,-14741,0
560,-8248,-205,-6019,-9944,1959,-9153,204,-13138,-7887,-13141,-651,-14368,-4846,-13578,-10636,-15646,-10562,4238,-5585,-20788,-14825,0
561,-8045,-393,-5793,-9740,2334,-9202,1825,-13386,-6478,-12948,107,-14700,-3566,-13447,-9472,-15374,-10381,4461,-4822,-21560,-15066,0
562,-7797,-363,-5670,-9403,2659,-8866,3019,-13698,-5513,-12845,643,-15219,-2754,-13393,-8475,-15020,-10100,4404,-4335,-21992,-15426,0
563,-7602,-189,-5704,-8987,2913,-8239,3569,-14062,-5142,-12888,833,-15887,-2549,-13452,-7798,-14706,-9770,4019,-4283,-22064,-15861,0
564,-7518,72,-5913,-8539,3100,-7429,3375,-14410,-5391,-13071,612,-16585,-2960,-13601,-7524,-14501,-9427,3353,-4743,-21786,-16323,0
565,-7547,410,-6271,-8086,3251,-6532,2471,-14640,-6159,-13329,-1,-17158,-3867,-13766,-7655,-14420,-9080,2544,-5687,-21199,-16771,0
566,-7636,853,-6711,-7634,3422,-5624,1010,-14642,-7243,-13553,-917,-17449,-5060,-13848,-8124,-14432,-8717,1785,-6991,-20372,-17173,0
567,-7696,1443,-7139,-7175,3677,-4754,-786,-14333,-8393,-13622,-2002,-17357,-6297,-13752,-8822,-14478,-8312,1268,-8468,-19386,-17511,0
568,-7635,2209,-7455,-6694,4073,-3945,-2674,-13687,-9372,-13440,-3113,-16858,-7364,-13416,-9625,-14491,-7839,1125,-9907,-18322,-17788,0
569,-7385,3150,-7578,-6176,4638,-3197,-4430,-12738,-10003,-12956,-4124,-16014,-8119,-12820,-10418,-14414,-7281,1392,-11113,-17247,-18030,0
570,-6921,4217,-7457,-5608,5365,-2497,-5882,-11569,-10191,-12170,-4949,-14939,-8497,-11982,-11110,-14203,-6636,2011,-11937,-16203,-18276,0
571,-6261,5329,-7077,-4988,6203,-1820,-6913,-10283,-9926,-11127,-5547,-13763,-8500,-10946,-11634,-13829,-5913,2852,-12289,-15201,-18571,0
572,-5459,6390,-6464,-4319,7072,-1143,-7469,-8974,-9268,-9902,-5913,-12582,-8188,-9759,-11949,-13275,-5139,3759,-12143,-14226,-18951,0
573,-4590,7311,-5673,-3621,7866,-455,-7559,-7707,-8322,-8583,-6075,-11442,-7647,-8463,-12033,-12530,-4348,4587,-11533,-13240,-19430,0
574,-3743,8026,-4788,-2929,8471,236,-7240,-6515,-7227,-7262,-6084,-10329,-6984,-7089,-11884,-11590,-3594,5231,-10544,-12198,-19993,0
575,-3004,8503,-3909,-2299,8783,901,-6622,-5403,-6136,-6028,-6009,-9196,-6308,-5663,-11519,-10461,-2937,5626,-9298,-11061,-20599,0
576,-2451,8741,-3146,-1795,8720,1488,-5845,-4363,-5202,-4959,-5929,-7982,-5731,-4206,-10977,-9157,-2444,5744,-7937,-9803,-21195,0
577,-2141,8770,-2599,-1480,8241,1943,-5047,-3383,-4556,-4111,-5919,-6639,-5341,-2739,-10307,-7702,-2168,5586,-6597,-8420,-21730,0
578,-2098,8649,-2340,-1388,7356,2226,-4340,-2448,-4281,-3506,-6030,-5139,-5186,-1273,-9569,-6122,-2134,5176,-5383,-6927,-22170,0
579,-2309,8451,-2402,-1518,6134,2330,-3776,-1540,-4394,-3127,-6283,-3478,-5253,187,-8812,-4440,-2328,4558,-4347,-5354,-22507,0
580,-2719,8257,-2763,-1823,4695,2285,-3347,-636,-4839,-2914,-6651,-1668,-5471,1648,-8078,-2678,-2689,3796,-3485,-3741,-22754,0
581,-3245,8136,-3352,-2222,3191,2157,-2997,286,-5502,-2783,-7073,256,-5726,3118,-7391,-856,-3127,2971,-2751,-2127,-22937,0
582,-3792,8132,-4063,-2615,1783,2027,-2644,1239,-6241,-2650,-7468,2244,-5901,4595,-6766,986,-3537,2167,-2078,-549,-23079,0
583,-4271,8254,-4773,-2909,613,1970,-2230,2215,-6925,-2451,-7760,4205,-5917,6054,-6213,2801,-3824,1458,-1414,955,-23196,0
584,-4615,8480,-5369,-3030,-223,2037,-1736,3183,-7463,-2157,-7898,6029,-5758,7446,-5740,4515,-3919,897,-737,2355,-23289,0
585,-4785,8771,-5760,-2934,-685,2249,-1191,4087,-7817,-1776,-7869,7587,-5473,8704,-5352,6049,-3784,509,-55,3621,-23354,0
586,-4763,9088,-5891,-2606,-795,2592,-661,4869,-7991,-1339,-7695,8760,-5152,9762,-5044,7332,-3415,300,601,4722,-23385,0
587,-4551,9404,-5743,-2061,-625,3031,-213,5478,-8007,-884,-7415,9464,-4881,10576,-4793,8321,-2831,255,1206,5631,-23384,0
588,-4166,9713,-5335,-1334,-284,3519,106,5878,-7886,-441,-7070,9671,-4706,11132,-4557,9010,-2074,352,1758,6318,-23360,0
589,-3638,10016,-4716,-486,99,4001,297,6057,-7628,-30,-6686,9408,-4615,11449,-4281,9432,-1204,555,2283,6757,-23317,0
590,-3016,10311,-3961,400,393,4422,406,6010,-7223,334,-6268,8744,-4542,11563,-3911,9643,-297,822,2830,6921,-23254,0
591,-2365,10582,-3163,1226,485,4736,510,5741,-6664,633,-5805,7769,-4401,11511,-3413,9703,553,1102,3452,6796,-23150,0
592,-1761,10799,-2423,1890,298,4911,686,5247,-5967,843,-5275,6564,-4122,11315,-2784,9651,1256,1330,4188,6372,-22971,0
593,-1279,10924,-1833,2310,-202,4939,993,4526,-5180,937,-4663,5185,-3674,10974,-2061,9494,1732,1454,5050,5658,-22678,0
594,-975,10930,-1466,2444,-992,4845,1447,3585,-4380,893,-3957,3663,-3075,10471,-1309,9202,1931,1439,6017,4677,-22235,0
595,-879,10800,-1361,2296,-2002,4675,2029,2449,-3649,705,-3160,2006,-2381,9788,-607,8721,1850,1278,7042,3467,-21618,0
596,-991,10539,-1518,1919,-3126,4491,2682,1159,-3056,385,-2283,220,-1657,8915,-30,7983,1524,1001,8053,2074,-20809,0
597,-1286,10163,-1903,1395,-4243,4344,3340,-227,-2636,-47,-1344,-1683,-958,7859,371,6923,1023,668,8972,549,-19780,0
598,-1727,9692,-2460,808,-5247,4260,3942,-1650,-2388,-569,-371,-3674,-315,6641,575,5497,422,348,9702,-1052,-18485,0
599,-2268,9145,-3119,228,-6055,4234,4438,-3058,-2279,-1179,599,-5697,257,5291,588,3689,-210,100,10153,-2668,-16840,0
600,-2868,8544,-3811,-309,-6622,4229,4797,-4415,-2270,-1887,1515,-7685,754,3838,432,1514,-823,-39,10246,-4220,-14740,0
601,-3484,7919,-4475,-792,-6938,4194,4994,-5697,-2326,-2712,2317,-9560,1158,2304,135,-982,-1391,-78,9926,-5614,-12072,0
602,-4074,7306,-5063,-1231,-7016,4084,5009,-6888,-2432,-3659,2937,-11244,1435,705,-283,-3723,-1901,-66,9181,-6742,-8762,0
603,-4597,6748,-5536,-1632,-6882,3875,4823,-7970,-2589,-4707,3310,-12672,1535,-940,-811,-6611,-2345,-74,8050,-7496,-4803,0
604,-5017,6280,-5866,-1998,-6566,3569,4421,-8921,-2809,-5797,3388,-13800,1406,-2604,-1452,-9534,-2715,-183,6624,-7793,-288,0
605,-5315,5918,-6036,-2317,-6096,3187,3805,-9721,-3098,-6841,3147,-14618,1016,-4249,-2214,-12373,-3003,-462,5030,-7596,4589,0
606,-5484,5655,-6046,-2578,-5501,2762,2997,-10354,-3450,-7749,2593,-15144,358,-5829,-3100,-15013,-3208,-943,3410,-6933,9550,0
607,-5541,5461,-5907,-2779,-4807,2329,2046,-10823,-3841,-8448,1763,-15431,-540,-7291,-4107,-17354,-3343,-1611,1891,-5895,14267,0
608,-5512,5302,-5649,-2931,-4046,1921,1018,-11148,-4236,-8906,720,-15548,-1621,-8586,-5216,-19318,-3436,-2405,573,-4632,18402,0
609,-5425,5161,-5315,-3057,-3247,1566,-14,-11358,-4589,-9131,-455,-15568,-2815,-9674,-6394,-20854,-3524,-3227,-492,-3325,21640,0
610,-5298,5049,-4953,-3181,-2436,1298,-988,-11477,-4859,-9161,-1680,-15548,-4047,-10517,-7594,-21938,-3642,-3956,-1287,-2152,23716,0
611,-5135,5014,-4610,-3317,-1634,1153,-1857,-11507,-5010,-9043,-2875,-15512,-5248,-11080,-8763,-22569,-3804,-4475,-1826,-1265,24435,0
612,-4926,5122,-4326,-3457,-851,1163,-2591,-11424,-5016,-8806,-3981,-15445,-6360,-11326,-9844,-22760,-3999,-4692,-2138,-762,23681,0
613,-4660,5438,-4122,-3572,-96,1348,-3179,-11178,-4864,-8462,-4961,-15293,-7334,-11215,-10783,-22532,-4191,-4559,-2259,-672,21434,0
614,-4334,5990,-4008,-3631,620,1696,-3625,-10713,-4561,-8003,-5810,-14974,-8141,-10711,-11537,-21909,-4336,-4085,-2223,-962,17785,0
615,-3970,6753,-3981,-3615,1272,2160,-3950,-9985,-4134,-7428,-6546,-14403,-8760,-9801,-12077,-20918,-4400,-3337,-2072,-1537,12947,0
616,-3620,7633,-4033,-3535,1818,2654,-4188,-8986,-3640,-6754,-7210,-13509,-9198,-8504,-12398,-19595,-4382,-2429,-1852,-2266,7254,0
617,-3361,8486,-4158,-3435,2208,3072,-4395,-7757,-3159,-6027,-7852,-12260,-9485,-6888,-12522,-17990,-4318,-1500,-1620,-3002,1129,0
618,-3280,9144,-4354,-3383,2393,3306,-4636,-6379,-2784,-5316,-8517,-10673,-9674,-5064,-12498,-16172,-4270,-685,-1435,-3607,-4966,0
619,-3447,9455,-4620,-3445,2352,3280,-4974,-4958,-2606,-4697,-9240,-8818,-9834,-3175,-12395,-14235,-4308,-92,-1351,-3977,-10591,0
620,-3899,9326,-4949,-3666,2097,2962,-5450,-3604,-2685,-4226,-10035,-6806,-10033,-1371,-12289,-12277,-4482,227,-1403,-4054,-15395,0
621,-4614,8751,-5328,-4044,1686,2381,-6063,-2406,-3037,-3929,-10889,-4767,-10317,220,-12244,-10396,-4805,275,-1600,-3833,-19168,0
622,-5515,7816,-5727,-4537,1203,1610,-6767,-1422,-3623,-3797,-11766,-2832,-10699,1514,-12298,-8664,-5248,106,-1918,-3353,-21852,0
623,-6483,6685,-6109,-5074,741,757,-7479,-674,-4357,-3800,-12611,-1107,-11149,2485,-12452,-7117,-5752,-200,-2314,-2686,-23530,0
624,-7384,5554,-6438,-5581,372,-67,-8104,-160,-5128,-3901,-13356,337,-11607,3153,-12667,-5748,-6250,-563,-2730,-1913,-24381,0
625,-8104,4609,-6688,-6003,131,-761,-8564,142,-5831,-4076,-13929,1471,-11994,3580,-12877,-4513,-6688,-927,-3118,-1107,-24630,0
626,-8577,3976,-6852,-6318,4,-1247,-8819,262,-6385,-4321,-14270,2306,-12241,3842,-13007,-3344,-7038,-1272,-3449,-319,-24501,0
627,-8795,3701,-6947,-6533,-59,-1477,-8880,236,-6759,-4633,-14339,2884,-12300,4018,-12985,-2164,-7301,-1613,-3710,433,-24187,0
628,-8802,3746,-7005,-6669,-129,-1420,-8795,112,-6960,-5007,-14123,3272,-12159,4180,-12760,-906,-7490,-1975,-3900,1157,-23836,0
629,-8673,4020,-7061,-6743,-280,-1066,-8625,-55,-7026,-5417,-13644,3552,-11832,4387,-12305,471,-7613,-2379,-4014,1879,-23549,0
630,-8487,4406,-7139,-6752,-578,-417,-8416,-208,-7004,-5814,-12950,3796,-11349,4690,-11613,1987,-7666,-2815,-4030,2629,-23389,0
631,-8300,4808,-7248,-6673,-1066,511,-8180,-292,-6928,-6137,-12107,4063,-10740,5123,-10698,3625,-7625,-3239,-3910,3419,-23380,0
632,-8136,5162,-7372,-6473,-1763,1672,-7893,-278,-6813,-6331,-11188,4375,-10026,5700,-9591,5335,-7460,-3577,-3607,4227,-23510,0
633,-7990,5450,-7489,-6132,-2662,2990,-7498,-176,-6654,-6371,-10259,4712,-9213,6399,-8335,7035,-7152,-3746,-3085,4988,-23740,0
634,-7844,5679,-7573,-5656,-3719,4352,-6942,-42,-6439,-6270,-9372,5009,-8300,7161,-6986,8614,-6709,-3677,-2334,5594,-24008,0
635,-7680,5865,-7610,-5092,-4856,5616,-6191,46,-6164,-6080,-8557,5171,-7285,7888,-5614,9946,-6176,-3336,-1380,5912,-24246,0
636,-7492,6018,-7603,-4513,-5958,6630,-5244,-1,-5838,-5869,-7825,5103,-6177,8470,-4293,10905,-5630,-2734,-285,5813,-24401,0
637,-7289,6131,-7561,-4008,-6886,7265,-4145,-250,-5490,-5704,-7170,4734,-4996,8800,-3092,11381,-5156,-1927,868,5201,-24449,0
638,-7085,6189,-7498,-3653,-7501,7434,-2962,-728,-5155,-5625,-6575,4037,-3774,8807,-2063,11313,-4836,-1005,1994,4041,-24400,0
639,-6891,6176,-7422,-3497,-7684,7121,-1771,-1410,-4866,-5646,-6017,3040,-2552,8463,-1236,10679,-4720,-65,3017,2367,-24300,0
640,-6714,6077,-7329,-3558,-7370,6379,-630,-2242,-4640,-5758,-5474,1807,-1377,7785,-618,9512,-4829,797,3876,281,-24204,0
641,-6552,5882,-7208,-3825,-6556,5312,428,-3160,-4477,-5949,-4928,415,-301,6814,-200,7888,-5155,1506,4523,-2075,-24166,0
642,-6409,5578,-7054,-4279,-5311,4054,1404,-4119,-4365,-6223,-4368,-1066,627,5601,37,5909,-5679,2010,4914,-4549,-24210,0
643,-6296,5150,-6871,-4900,-3759,2741,2318,-5104,-4286,-6605,-3797,-2592,1354,4182,108,3688,-6377,2288,5012,-7005,-24331,0
644,-6234,4588,-6684,-5671,-2061,1494,3201,-6133,-4235,-7138,-3231,-4142,1845,2577,22,1332,-7227,2342,4785,-9336,-24493,0
645,-6241,3905,-6528,-6572,-386,418,4072,-7228,-4216,-7860,-2695,-5705,2063,804,-215,-1060,-8203,2198,4228,-11471,-24647,0
646,-6321,3152,-6444,-7566,1112,-403,4932,-8402,-4247,-8785,-2219,-7260,2002,-1111,-593,-3405,-9257,1901,3371,-13360,-24751,0
647,-6451,2427,-6460,-8589,2313,-899,5755,-9629,-4352,-9888,-1829,-8767,1685,-3110,-1092,-5629,-10319,1508,2286,-14966,-24778,0
648,-6584,1861,-6586,-9552,3143,-1029,6492,-10848,-4551,-11101,-1539,-10163,1150,-5105,-1669,-7663,-11297,1072,1079,-16258,-24725,0
649,-6662,1585,-6812,-10361,3574,-796,7073,-11973,-4862,-12333,-1342,-11380,464,-6981,-2265,-9443,-12094,631,-132,-17217,-24609,0
650,-6643,1685,-7116,-10943,3619,-265,7421,-12919,-5292,-13487,-1218,-12357,-302,-8625,-2807,-10907,-12643,200,-1246,-17842,-24454,0
651,-6521,2169,-7472,-11273,3321,434,7460,-13625,-5850,-14490,-1131,-13057,-1082,-9945,-3222,-12001,-12922,-233,-2200,-18158,-24281,0
652,-6330,2954,-7860,-11376,2748,1126,7142,-14067,-6534,-15299,-1046,-13476,-1817,-10891,-3455,-12684,-12967,-701,-2981,-18214,-24102,0
653,-6139,3885,-8267,-11322,1980,1640,6464,-14260,-7332,-15902,-935,-13631,-2468,-11458,-3478,-12937,-12859,-1224,-3617,-18074,-23919,0
654,-6018,4779,-8678,-11192,1111,1855,5491,-14237,-8211,-16305,-786,-13551,-3012,-11680,-3302,-12773,-12687,-1802,-4153,-17796,-23730,0
655,-6011,5480,-9068,-11047,243,1739,4358,-14031,-9100,-16510,-606,-13260,-3436,-11615,-2977,-12240,-12519,-2390,-4626,-17420,-23535,0
656,-6116,5901,-9394,-10902,-516,1364,3264,-13660,-9898,-16509,-419,-12771,-3738,-11315,-2583,-11420,-12370,-2903,-5044,-16957,-23338,0
657,-6283,6037,-9604,-10724,-1065,874,2424,-13123,-10486,-16279,-258,-12088,-3920,-10831,-2214,-10421,-12208,-3233,-5381,-16394,-23147,0
658,-6432,5952,-9644,-10454,-1326,436,2023,-12408,-10754,-15799,-160,-11212,-3993,-10194,-1963,-9359,-11965,-3280,-5592,-15706,-22968,0
659,-6490,5752,-9484,-10037,-1260,182,2157,-11508,-10635,-15058,-164,-10155,-3977,-9428,-1905,-8348,-11582,-2983,-5634,-14883,-22806,0
660,-6416,5542,-9133,-9454,-885,174,2797,-10435,-10129,-14080,-296,-8951,-3911,-8554,-2089,-7478,-11033,-2339,-5492,-13931,-22653,0
661,-6215,5406,-8644,-8741,-276,394,3787,-9231,-9316,-12926,-576,-7653,-3847,-7597,-2531,-6810,-10350,-1411,-5190,-12886,-22498,0
662,-5936,5389,-8106,-7980,448,762,4884,-7955,-8335,-11690,-1008,-6331,-3849,-6591,-3222,-6369,-9612,-315,-4786,-11793,-22328,0
663,-5651,5504,-7618,-7275,1152,1180,5816,-6679,-7354,-10479,-1582,-5051,-3987,-5568,-4124,-6150,-8923,807,-4358,-10699,-22134,0
664,-5430,5742,-7265,-6725,1715,1566,6361,-5465,-6525,-9395,-2271,-3865,-4313,-4558,-5185,-6111,-8382,1820,-3973,-9627,-21912,0
665,-5316,6078,-7094,-6393,2061,1871,6401,-4356,-5948,-8510,-3035,-2794,-4855,-3576,-6333,-6188,-8050,2616,-3667,-8574,-21671,0
666,-5320,6484,-7106,-6293,2168,2088,5955,-3367,-5652,-7859,-3822,-1826,-5596,-2620,-7485,-6287,-7941,3138,-3440,-7513,-21426,0
667,-5413,6934,-7257,-6393,2073,2236,5162,-2491,-5593,-7432,-4572,-927,-6474,-1671,-8551,-6299,-8019,3382,-3254,-6407,-21196,0
668,-5544,7401,-7474,-6626,1850,2347,4247,-1700,-5672,-7181,-5226,-46,-7383,-694,-9439,-6107,-8217,3402,-3048,-5227,-20996,0
669,-5650,7864,-7674,-6908,1591,2454,3458,-970,-5768,-7029,-5730,865,-8194,344,-10066,-5607,-8452,3298,-2752,-3966,-20838,0
670,-5675,8303,-7781,-7160,1384,2583,3011,-264,-5763,-6889,-6040,1836,-8770,1474,-10369,-4730,-8648,3195,-2306,-2642,-20722,0
671,-5579,8696,-7741,-7314,1301,2756,3041,443,-5569,-6676,-6128,2878,-8996,2713,-10315,-3455,-8745,3225,-1661,-1299,-20640,0
672,-5348,9017,-7526,-7331,1390,2985,3584,1167,-5141,-6321,-5984,3981,-8799,4058,-9904,-1825,-8706,3497,-787,3,-20575,0
673,-4998,9237,-7133,-7195,1672,3265,4574,1912,-4479,-5784,-5624,5111,-8161,5483,-9169,65,-8523,4071,322,1200,-20508,0
674,-4571,9323,-6593,-6925,2139,3570,5866,2665,-3630,-5061,-5080,6218,-7120,6945,-8169,2074,-8216,4955,1648,2225,-20419,0
675,-4125,9250,-5958,-6562,2756,3845,7268,3391,-2675,-4185,-4409,7229,-5764,8379,-6979,4051,-7833,6084,3138,3012,-20298,0
676,-3727,9010,-5306,-6174,3448,4015,8585,4029,-1724,-3225,-3677,8050,-4220,9702,-5682,5842,-7441,7346,4704,3495,-20145,0
677,-3438,8623,-4728,-5840,4111,4002,9650,4496,-894,-2280,-2956,8571,-2637,10816,-4364,7330,-7119,8600,6228,3607,-19973,0
678,-3300,8134,-4315,-5639,4617,3751,10357,4696,-300,-1462,-2317,8683,-1166,11619,-3112,8412,-6946,9700,7574,3294,-19804,0
679,-3336,7601,-4142,-5638,4835,3244,10674,4541,-28,-887,-1818,8298,60,12013,-2008,9031,-6984,10532,8618,2525,-19664,0
680,-3542,7082,-4252,-5871,4663,2519,10640,3975,-124,-642,-1500,7380,942,11928,-1122,9159,-7263,11025,9267,1312,-19576,0
681,-3895,6618,-4641,-6338,4054,1658,10347,2992,-578,-775,-1378,5966,1437,11337,-502,8803,-7774,11167,9489,-286,-19550,0
682,-4355,6218,-5257,-6995,3043,773,9920,1649,-1319,-1282,-1432,4167,1561,10275,-158,8003,-8465,11000,9320,-2167,-19585,0
683,-4869,5869,-6002,-7763,1750,-27,9488,59,-2231,-2098,-1607,2145,1401,8833,-59,6833,-9249,10608,8856,-4191,-19659,0
684,-5373,5541,-6753,-8542,365,-658,9154,-1631,-3166,-3114,-1817,86,1086,7143,-132,5393,-10025,10095,8231,-6219,-19744,0
685,-5801,5213,-7383,-9233,-890,-1082,8982,-3271,-3978,-4197,-1953,-1851,768,5357,-281,3792,-10696,9566,7587,-8134,-19800,0
686,-6093,4878,-7787,-9757,-1814,-1310,8988,-4735,-4554,-5222,-1908,-3559,585,3610,-408,2126,-11191,9101,7038,-9863,-19794,0
687,-6202,4555,-7899,-10072,-2275,-1387,9141,-5948,-4833,-6097,-1603,-4998,620,1995,-444,464,-11477,8748,6651,-11380,-19703,0
688,-6105,4280,-7706,-10175,-2241,-1375,9376,-6884,-4813,-6783,-1010,-6183,885,545,-368,-1167,-11560,8520,6434,-12698,-19518,0
689,-5811,4097,-7246,-10101,-1781,-1329,9612,-7566,-4551,-7292,-166,-7153,1318,-754,-214,-2777,-11481,8396,6342,-13848,-19249,0
690,-5354,4045,-6597,-9907,-1043,-1282,9772,-8042,-4143,-7678,830,-7953,1798,-1953,-54,-4394,-11295,8339,6297,-14858,-18917,0
691,-4795,4142,-5862,-9659,-205,-1245,9795,-8374,-3704,-8013,1835,-8614,2180,-3113,13,-6045,-11064,8300,6200,-15739,-18550,0
692,-4207,4380,-5152,-9418,559,-1212,9647,-8625,-3348,-8371,2689,-9154,2331,-4284,-94,-7727,-10844,8232,5948,-16482,-18174,0
693,-3674,4719,-4573,-9241,1120,-1181,9314,-8858,-3181,-8811,3246,-9590,2153,-5496,-430,-9405,-10685,8089,5448,-17075,-17810,0
694,-3279,5087,-4214,-9178,1397,-1168,8800,-9132,-3290,-9372,3402,-9951,1601,-6757,-1001,-11011,-10633,7828,4624,-17512,-17468,0
695,-3101,5392,-4142,-9273,1351,-1206,8117,-9501,-3738,-10077,3108,-10279,687,-8055,-1771,-12457,-10732,7412,3424,-17800,-17149,0
696,-3205,5530,-4392,-9562,976,-1341,7276,-10011,-4560,-10931,2370,-10621,-542,-9368,-2673,-13659,-11023,6816,1833,-17963,-16847,0
697,-3629,5411,-4964,-10063,289,-1614,6294,-10680,-5745,-11920,1249,-11008,-2004,-10667,-3622,-14553,-11526,6035,-114,-18030,-16555,0
698,-4372,4976,-5817,-10765,-664,-2032,5199,-11493,-7238,-13011,-152,-11440,-3604,-11911,-4537,-15105,-12237,5092,-2327,-18018,-16261,0
699,-5387,4219,-6869,-11621,-1802,-2573,4038,-12390,-8930,-14139,-1706,-11875,-5232,-13053,-5347,-15314,-13107,4040,-4664,-17927,-15955,0
700,-6581,3191,-8005,-12542,-3007,-3185,2883,-13277,-10671,-15216,-3269,-12239,-6777,-14036,-6002,-15207,-14048,2959,-6943,-17738,-15627,0
701,-7826,2003,-9098,-13413,-4139,-3802,1818,-14032,-12292,-16132,-4703,-12436,-8126,-14792,-6472,-14823,-14943,1932,-8974,-17425,-15272,0
702,-8983,803,-10028,-14109,-5073,-4363,927,-14530,-13638,-16776,-5887,-12376,-9176,-15257,-6741,-14218,-15665,1042,-10587,-16962,-14892,0
703,-9927,-243,-10710,-14521,-5736,-4823,272,-14665,-14593,-17053,-6736,-11982,-9851,-15367,-6808,-13433,-16101,347,-11663,-16338,-14496,0
704,-10568,-979,-11109,-14574,-6139,-5151,-127,-14364,-15102,-16906,-7216,-11211,-10114,-15075,-6681,-12510,-16176,-127,-12150,-15551,-14099,0
705,-10869,-1294,-11238,-14244,-6375,-5323,-295,-13603,-15179,-16333,-7346,-10048,-9979,-14364,-6377,-11482,-15869,-385,-12072,-14609,-13719,0
706,-10851,-1140,-11158,-13563,-6595,-5321,-303,-12414,-14897,-15384,-7195,-8520,-9508,-13252,-5925,-10374,-15208,-464,-11516,-13519,-13365,0
707,-10583,-555,-10952,-12610,-6955,-5135,-243,-10885,-14364,-14164,-6868,-6693,-8805,-11796,-5360,-9212,-14275,-423,-10618,-12289,-13036,0
708,-10175,339,-10706,-11503,-7561,-4775,-207,-9152,-13706,-12811,-6483,-4681,-7993,-10097,-4730,-8020,-13184,-341,-9538,-10936,-12718,0
709,-9750,1351,-10488,-10379,-8438,-4285,-258,-7385,-13034,-11472,-6147,-2636,-7196,-8281,-4084,-6827,-12068,-298,-8430,-9492,-12382,0
710,-9425,2267,-10340,-9365,-9522,-3740,-415,-5763,-12434,-10281,-5932,-730,-6504,-6487,-3465,-5661,-11050,-369,-7424,-8010,-11997,0
711,-9279,2902,-10272,-8555,-10687,-3231,-643,-4432,-11955,-9329,-5870,877,-5972,-4843,-2909,-4552,-10223,-604,-6602,-6557,-11538,0
712,-9332,3156,-10268,-7989,-11790,-2834,-863,-3476,-11608,-8645,-5947,2078,-5611,-3439,-2434,-3524,-9627,-1016,-5990,-5199,-10991,0
713,-9537,3052,-10291,-7644,-12707,-2575,-973,-2895,-11371,-8197,-6125,2851,-5394,-2316,-2045,-2595,-9242,-1570,-5565,-3978,-10363,0
714,-9788,2728,-10297,-7438,-13362,-2416,-874,-2607,-11198,-7895,-6350,3266,-5278,-1466,-1738,-1779,-8992,-2190,-5260,-2897,-9677,0
715,-9948,2399,-10239,-7258,-13722,-2260,-495,-2469,-11031,-7623,-6575,3463,-5214,-842,-1507,-1088,-8768,-2765,-4991,-1921,-8961,0
716,-9887,2291,-10079,-6991,-13790,-1985,177,-2316,-10809,-7265,-6765,3607,-5161,-371,-1351,-533,-8462,-3181,-4678,-995,-8246,0
717,-9514,2568,-9791,-6559,-13572,-1484,1114,-2023,-10479,-6740,-6902,3839,-5090,19,-1271,-123,-7996,-3337,-4261,-59,-7549,0
718,-8806,3293,-9368,-5940,-13068,-702,2240,-1515,-10000,-6015,-6977,4233,-4983,390,-1269,133,-7349,-3172,-3713,920,-6869,0
719,-7802,4415,-8818,-5169,-12267,356,3458,-801,-9346,-5115,-6980,4782,-4826,779,-1339,238,-6556,-2670,-3036,1945,-6195,0
720,-6591,5802,-8164,-4325,-11160,1628,4676,54,-8508,-4109,-6903,5414,-4608,1201,-1470,201,-5699,-1865,-2259,2987,-5503,0
721,-5284,7284,-7438,-3508,-9760,3028,5816,944,-7499,-3091,-6740,6021,-4328,1643,-1647,42,-4875,-827,-1429,4000,-4774,0
722,-3988,8702,-6677,-2803,-8120,4463,6825,1758,-6354,-2159,-6496,6502,-3999,2075,-1861,-220,-4171,351,-603,4937,-4001,0
723,-2789,9937,-5916,-2273,-6340,5854,7668,2404,-5125,-1402,-6192,6785,-3654,2447,-2117,-566,-3643,1568,162,5760,-3193,0
724,-1751,10912,-5183,-1940,-4561,7133,8320,2817,-3881,-882,-5867,6836,-3344,2705,-2433,-984,-3306,2731,817,6442,-2375,0
725,-919,11591,-4501,-1796,-2936,8240,8756,2969,-2696,-627,-5568,6661,-3121,2802,-2834,-1466,-3142,3769,1331,6961,-1580,0
726,-310,11968,-3884,-1813,-1608,9113,8952,2864,-1638,-635,-5330,6291,-3023,2714,-3334,-1995,-3112,4635,1700,7299,-841,0
727,72,12067,-3339,-1948,-681,9697,8892,2535,-759,-868,-5164,5773,-3048,2447,-3918,-2546,-3170,5318,1946,7437,-184,0
728,250,11944,-2873,-2158,-197,9956,8576,2042,-91,-1264,-5045,5164,-3153,2045,-4537,-3077,-3273,5828,2113,7363,377,0
729,270,11688,-2490,-2399,-138,9892,8038,1460,363,-1746,-4922,4527,-3260,1582,-5111,-3540,-3389,6199,2250,7079,838,0
730,199,11411,-2191,-2631,-431,9554,7342,874,618,-2231,-4728,3921,-3277,1133,-5550,-3891,-3492,6473,2397,6607,1203,0
731,110,11222,-1978,-2821,-962,9036,6588,359,708,-2654,-4408,3397,-3131,768,-5783,-4110,-3567,6695,2570,5987,1478,0
732,62,11199,-1848,-2940,-1600,8450,5889,-28,681,-2974,-3933,2981,-2795,525,-5781,-4212,-3600,6910,2766,5272,1674,0
733,86,11359,-1793,-2972,-2212,7906,5352,-267,589,-3176,-3310,2672,-2295,399,-5567,-4242,-3584,7155,2968,4516,1806,0
734,171,11651,-1803,-2912,-2681,7480,5050,-367,482,-3274,-2577,2444,-1705,357,-5214,-4271,-3517,7455,3157,3764,1892,0
735,272,11969,-1867,-2767,-2913,7200,5003,-367,404,-3301,-1796,2253,-1125,341,-4826,-4374,-3402,7823,3326,3043,1955,0
736,325,12191,-1976,-2553,-2852,7046,5171,-319,377,-3300,-1035,2062,-653,287,-4511,-4611,-3247,8246,3477,2370,2013,0
737,270,12218,-2129,-2293,-2481,6971,5468,-270,403,-3309,-356,1848,-358,143,-4361,-5008,-3061,8686,3615,1750,2077,0
738,72,12006,-2321,-2007,-1829,6913,5785,-254,462,-3360,189,1621,-265,-121,-4428,-5552,-2855,9086,3738,1188,2144,0
739,-267,11582,-2548,-1712,-967,6822,6025,-285,521,-3470,567,1422,-358,-510,-4718,-6190,-2635,9381,3829,691,2195,0
740,-704,11026,-2801,-1422,-6,6669,6130,-355,548,-3633,765,1294,-584,-1003,-5195,-6841,-2405,9514,3865,269,2197,0
741,-1174,10450,-3057,-1148,933,6450,6095,-453,529,-3834,792,1276,-875,-1562,-5783,-7410,-2169,9461,3823,-71,2116,0
742,-1596,9957,-3285,-903,1729,6183,5964,-571,472,-4050,681,1376,-1159,-2143,-6384,-7806,-1938,9236,3693,-331,1922,0
743,-1896,9624,-3451,-704,2295,5901,5809,-711,411,-4258,485,1555,-1378,-2707,-6897,-7963,-1730,8889,3483,-529,1600,0
744,-2022,9484,-3522,-575,2593,5644,5708,-892,391,-4448,267,1747,-1497,-3229,-7237,-7849,-1572,8492,3215,-690,1148,0
745,-1948,9536,-3478,-539,2636,5452,5717,-1137,451,-4617,89,1867,-1507,-3702,-7352,-7472,-1496,8123,2913,-846,575,0
746,-1679,9752,-3316,-613,2479,5358,5860,-1458,609,-4776,1,1848,-1419,-4124,-7229,-6874,-1527,7839,2596,-1022,-108,0
747,-1249,10091,-3058,-803,2195,5376,6128,-1850,853,-4934,24,1664,-1264,-4490,-6897,-6115,-1680,7675,2273,-1229,-894,0
748,-717,10503,-2743,-1102,1844,5494,6473,-2274,1136,-5100,154,1344,-1085,-4780,-6410,-5258,-1949,7630,1946,-1460,-1780,0
749,-168,10932,-2428,-1487,1452,5674,6822,-2674,1389,-5270,361,963,-927,-4954,-5832,-4351,-2316,7685,1621,-1692,-2767,0
750,301,11318,-2180,-1931,1002,5859,7071,-2978,1530,-5434,602,618,-831,-4955,-5223,-3421,-2753,7795,1322,-1893,-3852,0
751,594,11598,-2061,-2403,447,5988,7105,-3130,1481,-5585,834,404,-832,-4729,-4624,-2481,-3228,7908,1075,-2029,-5023,0
752,637,11725,-2118,-2880,-261,6018,6813,-3098,1189,-5720,1023,374,-950,-4238,-4062,-1539,-3718,7973,915,-2077,-6259,0
753,396,11674,-2367,-3341,-1145,5943,6124,-2886,637,-5846,1155,545,-1182,-3483,-3552,-611,-4200,7947,869,-2025,-7529,0
754,-107,11451,-2783,-3768,-2170,5795,5035,-2523,-142,-5973,1234,885,-1499,-2499,-3102,271,-4655,7815,944,-1876,-8804,0
755,-796,11095,-3298,-4137,-3252,5639,3639,-2052,-1060,-6100,1278,1347,-1844,-1357,-2723,1062,-5058,7601,1133,-1652,-10057,0
756,-1554,10660,-3808,-4417,-4272,5542,2120,-1512,-1987,-6207,1319,1879,-2139,-142,-2425,1711,-5377,7373,1419,-1388,-11273,0
757,-2254,10193,-4197,-4576,-5117,5558,720,-928,-2766,-6249,1384,2442,-2306,1056,-2217,2172,-5576,7240,1781,-1139,-12446,0
758,-2789,9724,-4363,-4586,-5716,5698,-313,-310,-3254,-6169,1489,3014,-2287,2155,-2110,2411,-5621,7316,2199,-966,-13576,0
759,-3099,9257,-4243,-4434,-6068,5936,-812,330,-3356,-5917,1628,3575,-2072,3077,-2113,2406,-5498,7692,2646,-933,-14668,0
760,-3178,8781,-3837,-4137,-6235,6210,-724,968,-3050,-5480,1768,4098,-1712,3748,-2245,2141,-5218,8390,3077,-1095,-15723,0
761,-3071,8286,-3204,-3738,-6324,6447,-140,1555,-2403,-4894,1856,4539,-1314,4094,-2527,1607,-4825,9345,3425,-1484,-16741,0
762,-2856,7777,-2453,-3309,-6442,6584,732,2029,-1559,-4250,1832,4842,-1013,4055,-2980,804,-4388,10401,3606,-2099,-17716,0
763,-2618,7278,-1717,-2929,-6664,6582,1631,2312,-694,-3673,1654,4953,-933,3605,-3611,-244,-3993,11348,3537,-2902,-18639,0
764,-2432,6827,-1116,-2673,-7008,6435,2316,2350,19,-3289,1313,4839,-1149,2761,-4395,-1478,-3718,11971,3169,-3819,-19494,0
765,-2346,6460,-735,-2588,-7431,6167,2634,2125,463,-3194,847,4499,-1663,1609,-5269,-2801,-3615,12106,2502,-4750,-20264,0
766,-2372,6201,-601,-2679,-7845,5832,2548,1663,592,-3415,329,3968,-2410,286,-6141,-4092,-3696,11681,1603,-5587,-20923,0
767,-2486,6061,-688,-2906,-8135,5498,2137,1032,444,-3918,-144,3303,-3275,-1043,-6905,-5227,-3925,10731,589,-6230,-21453,0
768,-2634,6045,-914,-3191,-8184,5236,1552,330,120,-4607,-490,2571,-4133,-2217,-7477,-6114,-4226,9388,-399,-6610,-21838,0
769,-2738,6163,-1176,-3436,-7894,5114,961,-348,-252,-5354,-658,1827,-4882,-3122,-7814,-6713,-4500,7846,-1226,-6699,-22080,0
770,-2716,6430,-1364,-3546,-7197,5172,499,-920,-547,-6032,-643,1113,-5453,-3701,-7923,-7047,-4652,6319,-1794,-6516,-22197,0
771,-2503,6866,-1393,-3455,-6076,5415,233,-1336,-670,-6537,-481,451,-5809,-3958,-7855,-7179,-4611,4996,-2054,-6127,-22226,0
772,-2066,7471,-1210,-3146,-4572,5804,165,-1582,-574,-6808,-235,-147,-5938,-3938,-7675,-7189,-4353,4011,-2005,-5632,-22209,0
773,-1427,8212,-817,-2655,-2798,6256,240,-1678,-263,-6836,30,-676,-5833,-3705,-7443,-7142,-3905,3426,-1689,-5143,-22190,0
774,-660,9013,-262,-2064,-930,6658,388,-1672,214,-6652,261,-1138,-5498,-3323,-7197,-7074,-3343,3225,-1174,-4767,-22198,0
775,115,9771,361,-1485,806,6901,536,-1626,776,-6328,422,-1543,-4954,-2853,-6949,-6991,-2774,3322,-552,-4589,-22245,0
776,770,10374,940,-1026,2181,6903,636,-1613,1319,-5956,501,-1915,-4254,-2352,-6700,-6887,-2308,3582,77,-4655,-22328,0
777,1188,10737,1355,-774,2996,6636,659,-1697,1738,-5640,502,-2293,-3482,-1887,-6453,-6761,-2038,3848,609,-4970,-22434,0
778,1295,10824,1513,-773,3131,6137,598,-1933,1941,-5472,439,-2715,-2747,-1528,-6219,-6628,-2015,3973,952,-5505,-22552,0
779,1076,10654,1362,-1015,2568,5504,455,-2344,1873,-5520,341,-3215,-2158,-1345,-6022,-6519,-2245,3853,1048,-6198,-22675,0
780,575,10289,910,-1451,1402,4863,251,-2927,1523,-5816,244,-3805,-1787,-1390,-5885,-6466,-2684,3442,872,-6975,-22805,0
781,-118,9815,220,-2003,-181,4337,21,-3647,938,-6347,192,-4470,-1655,-1678,-5816,-6484,-3256,2764,452,-7759,-22950,0
782,-887,9315,-600,-2580,-1936,4014,-175,-4444,209,-7058,230,-5169,-1717,-2182,-5807,-6561,-3869,1898,-145,-8483,-23114,0
783,-1615,8855,-1421,-3100,-3601,3928,-261,-5246,-542,-7866,395,-5844,-1881,-2831,-5827,-6655,-4432,965,-829,-9094,-23297,0
784,-2197,8484,-2120,-3502,-4943,4056,-154,-5977,-1190,-8678,702,-6428,-2035,-3523,-5832,-6708,-4873,92,-1504,-9560,-23489,0
785,-2560,8236,-2602,-3747,-5793,4337,205,-6572,-1629,-9404,1141,-6862,-2076,-4149,-5772,-6657,-5145,-606,-2090,-9860,-23676,0
786,-2666,8136,-2818,-3821,-6073,4697,833,-6978,-1801,-9982,1679,-7095,-1935,-4606,-5599,-6450,-5230,-1059,-2530,-9986,-23841,0
787,-2520,8199,-2775,-3734,-5804,5077,1687,-7169,-1698,-10375,2260,-7094,-1588,-4820,-5279,-6058,-5134,-1238,-2793,-9937,-23968,0
788,-2166,8419,-2522,-3512,-5101,5443,2664,-7137,-1368,-10581,2824,-6844,-1053,-4747,-4795,-5476,-4888,-1162,-2873,-9713,-24047,0
789,-1685,8762,-2146,-3195,-4152,5789,3631,-6895,-896,-10617,3317,-6348,-379,-4384,-4154,-4726,-4535,-882,-2781,-9324,-24070,0
790,-1180,9163,-1745,-2829,-3181,6122,4454,-6471,-387,-10511,3696,-5625,364,-3762,-3388,-3850,-4130,-464,-2546,-8789,-24031,0
791,-760,9531,-1413,-2462,-2402,6446,5035,-5899,52,-10292,3943,-4712,1100,-2941,-2557,-2907,-3727,34,-2208,-8145,-23926,0
792,-518,9774,-1220,-2135,-1985,6746,5335,-5214,336,-9978,4059,-3657,1753,-2000,-1740,-1965,-3376,571,-1819,-7443,-23757,0
793,-506,9822,-1203,-1880,-2020,6985,5377,-4450,412,-9580,4060,-2518,2255,-1031,-1021,-1087,-3115,1138,-1433,-6749,-23532,0
794,-734,9649,-1366,-1717,-2505,7113,5234,-3640,267,-9107,3976,-1356,2556,-122,-478,-330,-2966,1729,-1102,-6131,-23268,0
795,-1161,9279,-1680,-1660,-3355,7079,4999,-2826,-84,-8582,3844,-242,2629,647,-160,272,-2940,2342,-867,-5648,-22995,0
796,-1718,8776,-2094,-1718,-4423,6850,4760,-2064,-595,-8048,3701,753,2478,1213,-80,704,-3040,2946,-754,-5342,-22746,0
797,-2315,8225,-2550,-1901,-5525,6424,4581,-1421,-1208,-7573,3589,1559,2143,1536,-211,976,-3265,3479,-766,-5226,-22552,0
798,-2871,7706,-2990,-2214,-6477,5837,4501,-971,-1856,-7239,3550,2114,1689,1608,-492,1121,-3607,3860,-891,-5283,-22435,0
799,-3321,7278,-3364,-2650,-7114,5159,4548,-766,-2475,-7122,3626,2384,1209,1453,-836,1187,-4050,4008,-1091,-5466,-22401,0
800,-3626,6972,-3639,-3184,-7318,4482,4748,-826,-3006,-7259,3854,2375,794,1130,-1150,1230,-4569,3881,-1312,-5709,-22440,0
801,-3768,6795,-3792,-3765,-7029,3902,5134,-1108,-3397,-7637,4262,2142,531,730,-1349,1306,-5110,3496,-1490,-5935,-22528,0
802,-3745,6740,-3817,-4321,-6257,3508,5746,-1521,-3613,-8180,4859,1783,479,355,-1371,1457,-5609,2935,-1556,-6073,-22633,0
803,-3567,6793,-3717,-4767,-5080,3356,6605,-1941,-3639,-8765,5624,1416,661,103,-1185,1708,-5994,2327,-1447,-6072,-22726,0
804,-3253,6943,-3507,-5029,-3636,3468,7701,-2242,-3489,-9256,6505,1159,1061,39,-801,2046,-6199,1819,-1123,-5915,-22791,0
805,-2823,7181,-3202,-5053,-2088,3821,8974,-2332,-3201,-9532,7421,1086,1629,183,-265,2442,-6180,1535,-577,-5622,-22822,0
806,-2297,7505,-2821,-4821,-598,4360,10317,-2172,-2839,-9519,8277,1224,2289,506,355,2836,-5923,1559,156,-5240,-22828,0
807,-1692,7911,-2374,-4351,715,5004,11596,-1779,-2471,-9199,8976,1546,2965,942,984,3176,-5441,1915,1013,-4837,-22825,0
808,-1018,8397,-1868,-3687,1797,5667,12688,-1220,-2158,-8609,9447,1988,3589,1414,1558,3426,-4775,2584,1908,-4473,-22825,0
809,-286,8956,-1303,-2888,2663,6275,13507,-575,-1941,-7825,9653,2472,4117,1850,2035,3580,-3977,3505,2757,-4188,-22836,0
810,497,9574,-683,-2020,3372,6773,14028,66,-1833,-6942,9600,2920,4524,2204,2402,3656,-3107,4589,3491,-3991,-22849,0
811,1302,10218,-28,-1151,3994,7137,14276,625,-1829,-6063,9329,3269,4806,2454,2665,3687,-2227,5723,4074,-3865,-22850,0
812,2086,10845,628,-344,4570,7372,14306,1039,-1915,-5288,8899,3465,4961,2592,2838,3696,-1398,6774,4484,-3782,-22819,0
813,2783,11395,1230,343,5089,7509,14172,1253,-2085,-4700,8377,3465,4984,2613,2922,3678,-676,7604,4720,-3714,-22741,0
814,3325,11810,1715,867,5489,7597,13907,1234,-2348,-4360,7817,3230,4864,2503,2903,3587,-106,8089,4784,-3654,-22618,0
815,3647,12043,2025,1203,5679,7687,13515,973,-2714,-4289,7254,2741,4591,2245,2748,3351,283,8153,4675,-3614,-22464,0
816,3719,12076,2131,1354,5579,7821,12984,499,-3191,-4463,6704,2018,4164,1827,2413,2892,489,7795,4393,-3622,-22305,0
817,3551,11925,2037,1351,5154,8023,12315,-118,-3768,-4807,6169,1114,3606,1264,1869,2150,536,7095,3948,-3708,-22170,0
818,3198,11638,1790,1243,4431,8287,11539,-774,-4403,-5214,5644,132,2959,593,1106,1115,463,6206,3367,-3890,-22080,0
819,2746,11283,1465,1082,3496,8579,10722,-1353,-5027,-5569,5124,-803,2287,-109,151,-174,318,5312,2699,-4167,-22047,0
820,2286,10927,1146,913,2471,8850,9951,-1758,-5565,-5780,4606,-1571,1659,-754,-931,-1626,140,4584,2020,-4514,-22066,0
821,1898,10629,907,756,1477,9045,9310,-1934,-5949,-5800,4091,-2086,1137,-1255,-2054,-3116,-49,4139,1404,-4891,-22125,0
822,1634,10419,796,612,614,9129,8854,-1882,-6138,-5639,3581,-2321,760,-1543,-3115,-4511,-243,4011,928,-5249,-22210,0
823,1505,10303,823,466,-64,9091,8596,-1656,-6128,-5349,3085,-2304,539,-1587,-4020,-5689,-451,4164,650,-5544,-22312,0
824,1497,10264,966,298,-543,8943,8511,-1337,-5947,-5007,2617,-2112,460,-1394,-4699,-6557,-683,4507,598,-5745,-22428,0
825,1560,10266,1177,92,-846,8718,8545,-1017,-5648,-4684,2199,-1839,490,-1009,-5113,-7063,-950,4931,770,-5845,-22561,0
826,1640,10266,1390,-162,-1020,8441,8643,-770,-5292,-4432,1862,-1576,589,-505,-5262,-7193,-1256,5335,1132,-5861,-22711,0
827,1669,10217,1532,-470,-1128,8124,8759,-644,-4939,-4278,1637,-1393,710,30,-5183,-6977,-1603,5641,1621,-5834,-22876,0
828,1583,10074,1537,-837,-1244,7753,8862,-664,-4640,-4233,1550,-1333,812,509,-4939,-6477,-2000,5798,2154,-5821,-23045,0
829,1332,9804,1352,-1270,-1445,7300,8935,-829,-4429,-4293,1607,-1402,863,851,-4604,-5777,-2451,5780,2636,-5883,-23207,0
830,889,9391,956,-1772,-1793,6728,8972,-1129,-4315,-4451,1790,-1591,851,1008,-4247,-4969,-2962,5580,2988,-6071,-23351,0
831,259,8838,363,-2336,-2317,6018,8970,-1538,-4287,-4695,2060,-1860,785,965,-3916,-4131,-3526,5209,3153,-6406,-23472,0
832,-519,8168,-368,-2935,-3001,5179,8928,-2024,-4310,-5004,2360,-2163,694,751,-3633,-3317,-4119,4693,3120,-6873,-23572,0
833,-1376,7418,-1157,-3525,-3776,4250,8843,-2545,-4338,-5346,2628,-2440,628,422,-3389,-2551,-4697,4066,2923,-7419,-23655,0
834,-2233,6630,-1899,-4049,-4541,3294,8709,-3060,-4328,-5686,2811,-2643,634,55,-3156,-1831,-5209,3363,2633,-7961,-23728,0
835,-3013,5847,-2508,-4455,-5189,2391,8516,-3536,-4259,-5992,2874,-2738,740,-277,-2904,-1140,-5609,2612,2334,-8406,-23790,0
836,-3662,5112,-2932,-4708,-5646,1623,8243,-3952,-4141,-6244,2802,-2723,945,-525,-2612,-462,-5868,1823,2096,-8670,-23839,0
837,-4150,4465,-3161,-4804,-5903,1062,7868,-4307,-4011,-6436,2600,-2630,1207,-673,-2281,200,-5981,991,1956,-8703,-23867,0
838,-4471,3953,-3229,-4763,-6017,761,7370,-4612,-3921,-6572,2292,-2519,1456,-745,-1935,819,-5970,107,1906,-8498,-23868,0
839,-4634,3627,-3197,-4629,-6097,745,6740,-4889,-3915,-6662,1914,-2468,1621,-794,-1623,1343,-5868,-829,1901,-8100,-23840,0
840,-4656,3528,-3132,-4454,-6266,1000,5984,-5160,-4013,-6711,1509,-2552,1630,-892,-1397,1706,-5719,-1793,1858,-7603,-23792,0
841,-4561,3673,-3091,-4291,-6627,1461,5130,-5442,-4197,-6722,1122,-2826,1456,-1113,-1310,1848,-5565,-2738,1697,-7131,-23735,0
842,-4382,4041,-3109,-4186,-7227,2017,4220,-5745,-4426,-6697,790,-3310,1093,-1517,-1398,1727,-5445,-3595,1339,-6817,-23686,0
843,-4168,4560,-3205,-4181,-8049,2516,3306,-6074,-4646,-6643,540,-3984,576,-2136,-1673,1346,-5398,-4294,738,-6780,-23656,0
844,-3979,5115,-3384,-4308,-9019,2801,2443,-6427,-4812,-6572,382,-4790,-38,-2965,-2111,746,-5458,-4785,-111,-7090,-23652,0
845,-3886,5570,-3643,-4589,-10031,2738,1687,-6792,-4895,-6502,312,-5637,-678,-3955,-2655,19,-5656,-5056,-1163,-7753,-23666,0
846,-3952,5791,-3980,-5029,-10970,2255,1093,-7153,-4895,-6441,320,-6421,-1269,-5019,-3219,-704,-6007,-5131,-2320,-8705,-23685,0
847,-4221,5679,-4387,-5616,-11738,1362,703,-7484,-4828,-6392,396,-7044,-1734,-6044,-3701,-1292,-6509,-5080,-3444,-9821,-23687,0
848,-4707,5188,-4850,-6315,-12259,138,551,-7765,-4724,-6345,535,-7440,-2010,-6911,-4006,-1626,-7136,-4999,-4384,-10951,-23655,0
849,-5388,4332,-5349,-7076,-12491,-1284,648,-7982,-4623,-6291,741,-7592,-2053,-7526,-4061,-1640,-7844,-4991,-5004,-11952,-23578,0
850,-6208,3180,-5848,-7841,-12411,-2757,983,-8144,-4562,-6231,1014,-7540,-1851,-7840,-3841,-1333,-8579,-5141,-5226,-12722,-23459,0
851,-7086,1850,-6309,-8557,-12013,-4151,1521,-8276,-4577,-6178,1350,-7372,-1432,-7856,-3371,-775,-9283,-5498,-5040,-13223,-23314,0
852,-7919,493,-6684,-9175,-11299,-5368,2216,-8409,-4691,-6162,1726,-7200,-861,-7630,-2721,-94,-9907,-6055,-4513,-13472,-23170,0
853,-8598,-716,-6929,-9657,-10276,-6346,3025,-8568,-4900,-6205,2112,-7124,-229,-7247,-1995,553,-10404,-6748,-3765,-13527,-23054,0
854,-9015,-1613,-7001,-9968,-8964,-7046,3914,-8750,-5168,-6318,2469,-7209,369,-6792,-1304,1016,-10737,-7463,-2932,-13458,-22986,0
855,-9084,-2056,-6868,-10081,-7404,-7447,4870,-8924,-5428,-6483,2769,-7463,857,-6334,-750,1175,-10872,-8060,-2130,-13326,-22972,0
856,-8757,-1958,-6512,-9975,-5663,-7542,5887,-9040,-5592,-6661,2996,-7850,1191,-5908,-409,966,-10785,-8406,-1432,-13174,-23005,0
857,-8043,-1313,-5943,-9644,-3842,-7353,6953,-9051,-5577,-6807,3155,-8305,1367,-5520,-329,382,-10469,-8408,-857,-13032,-23066,0
858,-7013,-197,-5195,-9109,-2068,-6936,8041,-8931,-5331,-6884,3259,-8769,1412,-5161,-529,-533,-9944,-8039,-386,-12923,-23132,0
859,-5795,1236,-4337,-8419,-478,-6389,9097,-8693,-4861,-6880,3325,-9200,1366,-4818,-1005,-1692,-9262,-7349,17,-12871,-23182,0
860,-4551,2791,-3460,-7650,794,-5829,10051,-8378,-4234,-6806,3360,-9580,1264,-4486,-1731,-2985,-8502,-6454,381,-12896,-23203,0
861,-3445,4267,-2667,-6891,1644,-5369,10825,-8042,-3565,-6687,3359,-9897,1130,-4172,-2667,-4287,-7756,-5509,714,-13000,-23191,0
862,-2610,5507,-2056,-6222,2003,-5078,11358,-7724,-2992,-6544,3306,-10134,971,-3885,-3750,-5480,-7107,-4672,1004,-13157,-23148,0
863,-2121,6420,-1702,-5699,1851,-4963,11623,-7434,-2636,-6385,3179,-10244,777,-3627,-4909,-6457,-6612,-4064,1219,-13304,-23077,0
864,-1989,6994,-1639,-5344,1213,-4965,11634,-7148,-2572,-6203,2961,-10167,544,-3392,-6061,-7141,-6287,-3747,1328,-13358,-22985,0
865,-2162,7278,-1858,-5143,156,-4985,11448,-6823,-2816,-5987,2641,-9838,273,-3163,-7125,-7490,-6113,-3713,1308,-13236,-22877,0
866,-2553,7360,-2306,-5059,-1215,-4927,11151,-6424,-3320,-5732,2219,-9219,-19,-2916,-8029,-7507,-6047,-3897,1160,-12890,-22760,0
867,-3059,7325,-2903,-5053,-2764,-4740,10840,-5938,-3992,-5452,1704,-8319,-305,-2624,-8716,-7226,-6039,-4188,914,-12326,-22647,0
868,-3590,7237,-3556,-5092,-4338,-4436,10603,-5388,-4716,-5177,1119,-7193,-536,-2268,-9141,-6710,-6053,-4473,630,-11607,-22551,0
869,-4081,7122,-4177,-5161,-5783,-4090,10506,-4817,-5376,-4937,498,-5935,-660,-1828,-9275,-6024,-6072,-4641,402,-10838,-22488,0
870,-4498,6973,-4693,-5258,-6962,-3805,10581,-4271,-5871,-4748,-104,-4647,-620,-1287,-9100,-5227,-6095,-4615,343,-10132,-22468,0
871,-4829,6767,-5057,-5384,-7777,-3671,10835,-3780,-6124,-4597,-615,-3413,-365,-627,-8609,-4355,-6131,-4342,567,-9583,-22491,0
872,-5075,6483,-5247,-5531,-8181,-3732,11253,-3343,-6090,-4443,-953,-2283,152,165,-7817,-3430,-6183,-3806,1168,-9239,-22549,0
873,-5244,6118,-5261,-5682,-8185,-3979,11812,-2930,-5752,-4228,-1041,-1275,945,1096,-6766,-2463,-6242,-3017,2189,-9104,-22623,0
874,-5342,5684,-5115,-5808,-7843,-4361,12487,-2506,-5123,-3900,-825,-384,1996,2150,-5532,-1472,-6288,-2008,3601,-9147,-22695,0
875,-5375,5208,-4834,-5881,-7237,-4814,13253,-2037,-4246,-3436,-298,396,3244,3288,-4221,-492,-6298,-838,5296,-9320,-22750,0
876,-5356,4711,-4444,-5879,-6454,-5292,14081,-1519,-3191,-2847,492,1062,4584,4443,-2959,424,-6257,426,7097,-9577,-22785,0
877,-5298,4206,-3973,-5797,-5567,-5778,14933,-966,-2043,-2182,1446,1605,5884,5531,-1874,1215,-6156,1704,8792,-9880,-22807,0
878,-5217,3697,-3442,-5633,-4628,-6269,15757,-412,-893,-1501,2429,2004,7007,6469,-1071,1819,-5995,2926,10171,-10197,-22828,0
879,-5122,3186,-2867,-5392,-3672,-6756,16491,106,173,-865,3302,2255,7835,7184,-613,2200,-5773,4035,11071,-10495,-22864,0
880,-5010,2690,-2262,-5070,-2727,-7201,17072,559,1087,-324,3949,2361,8293,7627,-518,2336,-5481,5001,11405,-10737,-22926,0
881,-4870,2246,-1643,-4656,-1828,-7539,17439,918,1796,88,4297,2336,8359,7775,-756,2237,-5105,5808,11169,-10893,-23018,0
882,-4691,1900,-1038,-4147,-1029,-7694,17547,1160,2264,340,4328,2195,8060,7624,-1262,1931,-4635,6446,10434,-10948,-23135,0
883,-4476,1695,-488,-3554,-398,-7620,17367,1244,2464,395,4076,1935,7463,7187,-1948,1457,-4084,6897,9321,-10921,-23271,0
884,-4253,1646,-52,-2925,-9,-7330,16887,1123,2378,206,3612,1538,6656,6490,-2715,864,-3496,7126,7982,-10864,-23414,0
885,-4071,1727,216,-2339,80,-6907,16118,741,1998,-271,3031,977,5738,5575,-3455,213,-2951,7091,6570,-10852,-23554,0
886,-3997,1872,270,-1895,-158,-6483,15094,69,1340,-1059,2429,233,4807,4506,-4067,-423,-2548,6760,5226,-10962,-23683,0
887,-4082,1996,91,-1688,-705,-6197,13881,-885,448,-2140,1895,-676,3951,3371,-4457,-959,-2377,6136,4066,-11238,-23797,0
888,-4350,2022,-297,-1777,-1505,-6143,12567,-2056,-601,-3444,1492,-1687,3235,2274,-4561,-1308,-2498,5273,3168,-11674,-23892,0
889,-4779,1908,-845,-2168,-2478,-6338,11257,-3330,-1713,-4852,1249,-2703,2707,1320,-4353,-1399,-2914,4276,2566,-12208,-23970,0
890,-5309,1664,-1463,-2811,-3540,-6723,10048,-4567,-2787,-6226,1163,-3603,2363,592,-3858,-1192,-3573,3284,2241,-12744,-24033,0
891,-5855,1331,-2064,-3611,-4619,-7191,9010,-5637,-3736,-7435,1199,-4289,2177,132,-3150,-691,-4382,2433,2130,-13176,-24085,0
892,-6334,980,-2570,-4457,-5657,-7624,8172,-6448,-4507,-8391,1309,-4708,2094,-59,-2330,56,-5233,1825,2139,-13424,-24127,0
893,-6685,677,-2930,-5247,-6608,-7937,7522,-6969,-5075,-9060,1445,-4866,2052,-29,-1506,979,-6025,1507,2170,-13452,-24161,0
894,-6874,470,-3120,-5905,-7416,-8093,7023,-7225,-5440,-9465,1578,-4822,2000,156,-763,1985,-6688,1462,2146,-13269,-24184,0
895,-6895,388,-3145,-6394,-8010,-8097,6637,-7284,-5619,-9672,1701,-4664,1906,418,-151,2991,-7182,1619,2025,-12918,-24189,0
896,-6758,446,-3025,-6705,-8308,-7975,6344,-7225,-5631,-9765,1833,-4477,1769,683,315,3923,-7499,1880,1802,-12454,-24172,0
897,-6479,651,-2796,-6856,-8240,-7755,6154,-7125,-5503,-9828,1997,-4326,1591,884,638,4721,-7655,2139,1496,-11931,-24130,0
898,-6079,1007,-2499,-6883,-7773,-7458,6093,-7040,-5271,-9934,2216,-4246,1372,960,825,5325,-7687,2300,1130,-11390,-24065,0
899,-5591,1500,-2185,-6837,-6945,-7107,6186,-7012,-4988,-10139,2489,-4250,1100,858,870,5682,-7646,2288,715,-10874,-23986,0
900,-5069,2092,-1909,-6783,-5866,-6740,6435,-7071,-4724,-10481,2801,-4343,745,532,756,5739,-7598,2056,243,-10430,-23906,0
901,-4591,2707,-1730,-6795,-4702,-6418,6807,-7245,-4555,-10982,3116,-4539,272,-42,465,5459,-7616,1583,-302,-10116,-23839,0
902,-4243,3238,-1693,-6942,-3638,-6223,7237,-7558,-4542,-11642,3401,-4863,-337,-859,-2,4847,-7765,879,-926,-9996,-23797,0
903,-4104,3573,-1821,-7269,-2826,-6231,7644,-8021,-4711,-12435,3630,-5343,-1067,-1868,-614,3934,-8089,-5,-1608,-10122,-23785,0
904,-4212,3629,-2097,-7779,-2353,-6480,7946,-8624,-5039,-13300,3799,-5994,-1860,-2979,-1302,2808,-8588,-986,-2288,-10515,-23802,0
905,-4546,3386,-2464,-8421,-2225,-6950,8077,-9323,-5455,-14145,3923,-6802,-2621,-4072,-1974,1593,-9210,-1943,-2878,-11150,-23842,0
906,-5019,2910,-2837,-9098,-2379,-7559,7993,-10047,-5862,-14859,4031,-7720,-3234,-5020,-2527,428,-9858,-2748,-3278,-11956,-23895,0
907,-5500,2337,-3119,-9683,-2709,-8184,7677,-10706,-6157,-15337,4159,-8669,-3593,-5712,-2872,-550,-10410,-3277,-3402,-12836,-23953,0
908,-5848,1846,-3231,-10054,-3097,-8701,7143,-11215,-6259,-15499,4336,-9553,-3620,-6073,-2948,-1229,-10753,-3447,-3200,-13683,-24006,0
909,-5947,1604,-3133,-10127,-3433,-9019,6436,-11509,-6127,-15320,4579,-10281,-3283,-6075,-2727,-1537,-10809,-3234,-2673,-14405,-24047,0
910,-5742,1720,-2833,-9878,-3628,-9105,5640,-11562,-5757,-14828,4887,-10779,-2602,-5731,-2214,-1444,-10558,-2679,-1865,-14938,-24070,0
911,-5244,2220,-2380,-9344,-3608,-8979,4873,-11382,-5176,-14099,5245,-11003,-1634,-5088,-1445,-962,-10042,-1874,-859,-15243,-24065,0
912,-4521,3044,-1847,-8616,-3320,-8697,4271,-11005,-4426,-13233,5625,-10935,-466,-4208,-475,-144,-9348,-942,251,-15305,-24025,0
913,-3674,4067,-1308,-7807,-2742,-8320,3953,-10478,-3557,-12325,5990,-10585,802,-3166,619,929,-8582,-5,1371,-15123,-23941,0
914,-2811,5141,-824,-7029,-1894,-7891,3991,-9851,-2621,-11448,6302,-9985,2068,-2043,1743,2145,-7847,840,2411,-14711,-23809,0
915,-2022,6124,-429,-6371,-855,-7433,4373,-9167,-1677,-10640,6520,-9192,3234,-927,2790,3374,-7223,1540,3296,-14105,-23627,0
916,-1372,6913,-135,-5887,247,-6949,4999,-8466,-793,-9913,6612,-8281,4219,86,3652,4472,-6754,2078,3959,-13362,-23401,0
917,-900,7446,58,-5598,1256,-6436,5706,-7786,-34,-9263,6556,-7341,4946,906,4239,5303,-6452,2472,4354,-12559,-23141,0
918,-614,7706,177,-5493,2034,-5896,6309,-7159,548,-8683,6349,-6460,5377,1461,4488,5777,-6302,2758,4461,-11781,-22859,0
919,-501,7706,242,-5537,2505,-5340,6667,-6611,932,-8166,6007,-5709,5504,1724,4393,5836,-6270,2985,4292,-11097,-22566,0
920,-526,7491,292,-5679,2689,-4780,6716,-6152,1141,-7709,5561,-5127,5355,1710,3994,5495,-6312,3197,3901,-10545,-22271,0
921,-627,7121,373,-5864,2690,-4232,6493,-5773,1234,-7306,5048,-4717,4998,1481,3369,4822,-6378,3433,3368,-10121,-21982,0
922,-731,6676,534,-6035,2668,-3714,6110,-5455,1294,-6943,4498,-4450,4499,1125,2609,3922,-6428,3718,2787,-9790,-21708,0
923,-766,6240,810,-6153,2773,-3248,5710,-5174,1391,-6603,3926,-4283,3930,722,1791,2907,-6434,4056,2234,-9507,-21462,0
924,-682,5887,1213,-6199,3093,-2874,5419,-4914,1565,-6267,3327,-4174,3338,330,965,1875,-6389,4430,1754,-9242,-21259,0
925,-466,5663,1716,-6182,3614,-2641,5303,-4675,1809,-5921,2689,-4102,2744,-40,145,896,-6309,4802,1351,-8999,-21118,0
926,-157,5572,2255,-6127,4229,-2605,5361,-4472,2075,-5561,2002,-4065,2149,-403,-667,9,-6224,5130,1001,-8818,-21054,0
927,168,5570,2743,-6072,4773,-2809,5534,-4331,2296,-5195,1279,-4083,1550,-788,-1470,-768,-6171,5374,671,-8762,-21070,0
928,410,5581,3091,-6047,5077,-3269,5742,-4276,2412,-4834,553,-4186,952,-1213,-2244,-1428,-6177,5515,338,-8890,-21153,0
929,480,5525,3227,-6064,5023,-3962,5906,-4318,2389,-4495,-115,-4398,378,-1673,-2945,-1964,-6250,5558,1,-9236,-21271,0
930,327,5344,3120,-6114,4570,-4830,5976,-4450,2232,-4189,-662,-4728,-144,-2135,-3524,-2371,-6372,5531,-321,-9794,-21376,0
931,-47,5031,2784,-6171,3763,-5789,5934,-4649,1974,-3926,-1033,-5160,-580,-2554,-3933,-2646,-6508,5476,-600,-10515,-21411,0
932,-588,4632,2273,-6198,2712,-6747,5793,-4873,1667,-3709,-1199,-5655,-903,-2884,-4151,-2790,-6614,5436,-813,-11313,-21324,0
933,-1203,4230,1667,-6168,1559,-7618,5586,-5078,1360,-3540,-1168,-6149,-1105,-3089,-4182,-2815,-6654,5439,-946,-12082,-21075,0
934,-1792,3914,1051,-6069,450,-8337,5361,-5222,1087,-3421,-971,-6566,-1191,-3154,-4057,-2735,-6612,5494,-1004,-12715,-20648,0
935,-2275,3747,495,-5915,-495,-8860,5172,-5275,863,-3352,-667,-6834,-1179,-3082,-3818,-2566,-6500,5581,-1002,-13123,-20052,0
936,-2610,3738,44,-5740,-1191,-9176,5075,-5234,681,-3342,-321,-6906,-1097,-2895,-3508,-2322,-6359,5662,-963,-13245,-19320,0
937,-2799,3844,-288,-5593,-1599,-9298,5110,-5120,516,-3403,-3,-6772,-975,-2631,-3167,-2015,-6246,5679,-916,-13064,-18507,0
938,-2879,3985,-511,-5529,-1729,-9269,5287,-4983,337,-3550,222,-6463,-848,-2338,-2822,-1658,-6226,5570,-893,-12607,-17677,0
939,-2906,4075,-651,-5590,-1634,-9153,5576,-4883,110,-3792,299,-6048,-751,-2072,-2495,-1265,-6346,5285,-921,-11944,-16899,0
940,-2928,4054,-737,-5798,-1399,-9028,5906,-4875,-186,-4121,197,-5608,-710,-1881,-2202,-854,-6629,4801,-1016,-11171,-16232,0
941,-2972,3902,-783,-6141,-1129,-8967,6181,-4988,-547,-4507,-86,-5216,-733,-1799,-1945,-441,-7059,4138,-1171,-10398,-15723,0
942,-3038,3641,-791,-6580,-928,-9019,6312,-5213,-947,-4895,-517,-4916,-808,-1831,-1714,-38,-7586,3363,-1351,-9723,-15396,0
943,-3106,3325,-750,-7051,-878,-9200,6243,-5507,-1338,-5214,-1029,-4719,-899,-1955,-1485,340,-8134,2582,-1503,-9222,-15255,0
